Fp1[1],Fp2[2],F3[3],F4[4],C3[5],C4[6],P3[7],P4[8],O1[9],O2[10],F7[11],F8[12],T3[13],T4[14],T5[15],T6[16],Fz[17],Pz[18],Cz[19],Pg1[20],Pg2[21],EOGR[22],EOOGL[23],EMG[24]
325.0,-6.26984126984127,208.65079365079364,-311.19047619047615,209.12698412698413,325.0,211.34920634920633,325.0,241.98412698412696,42.61904761904761,325.0,8.968253968253968,204.68253968253967,17.38095238095238,325.0,31.98412698412698,325.0,-325.0,-325.0,-325.0,-325.0,-1.0317460317460316,-1.349206349206349,-166.26984126984127
325.0,-6.26984126984127,208.65079365079364,-311.19047619047615,209.12698412698413,325.0,211.34920634920633,325.0,241.98412698412696,42.61904761904761,325.0,8.968253968253968,204.68253968253967,17.38095238095238,325.0,31.98412698412698,325.0,-325.0,-325.0,-325.0,-325.0,-1.0317460317460316,-1.349206349206349,-166.26984126984127
325.0,-0.23809523809523808,190.07936507936506,-281.984126984127,191.19047619047618,-0.07936507936507936,192.93650793650792,325.0,221.34920634920633,35.317460317460316,325.0,9.444444444444445,186.9047619047619,14.365079365079364,325.0,27.063492063492063,325.0,-321.031746031746,-325.0,-325.0,-325.0,0.7142857142857142,-1.8253968253968254,-166.26984126984127
325.0,-0.23809523809523808,190.07936507936506,-281.984126984127,191.19047619047618,-0.07936507936507936,192.93650793650792,325.0,221.34920634920633,35.317460317460316,325.0,9.444444444444445,186.9047619047619,14.365079365079364,325.0,27.063492063492063,325.0,-321.031746031746,-325.0,-325.0,-325.0,0.7142857142857142,-1.8253968253968254,-166.26984126984127
325.0,8.174603174603174,172.46031746031744,-254.36507936507934,174.36507936507937,-325.0,175.3174603174603,325.0,201.66666666666666,31.03174603174603,325.0,12.777777777777777,170.07936507936506,13.73015873015873,325.0,25.0,325.0,-317.06349206349205,-325.0,-325.0,-325.0,1.0317460317460316,-0.7142857142857142,-166.26984126984127
325.0,8.174603174603174,172.46031746031744,-254.36507936507934,174.36507936507937,-325.0,175.3174603174603,325.0,201.66666666666666,31.03174603174603,325.0,12.777777777777777,170.07936507936506,13.73015873015873,325.0,25.0,325.0,-317.06349206349205,-325.0,-325.0,-325.0,1.0317460317460316,-0.7142857142857142,-166.26984126984127
325.0,20.396825396825395,154.2063492063492,-226.74603174603175,156.9047619047619,-325.0,157.06349206349205,325.0,181.34920634920633,32.14285714285714,325.0,21.349206349206348,152.3015873015873,16.904761904761905,325.0,28.333333333333332,325.0,-285.1587301587301,-325.0,-325.0,-325.0,-1.1904761904761905,1.507936507936508,-166.26984126984127
325.0,20.396825396825395,154.2063492063492,-226.74603174603175,156.9047619047619,-325.0,157.06349206349205,325.0,181.34920634920633,32.14285714285714,325.0,21.349206349206348,152.3015873015873,16.904761904761905,325.0,28.333333333333332,325.0,-285.1587301587301,-325.0,-325.0,-325.0,-1.1904761904761905,1.507936507936508,-166.26984126984127
325.0,25.476190476190474,151.5079365079365,-222.61904761904762,154.04761904761904,-325.0,154.36507936507937,325.0,178.17460317460316,35.95238095238095,325.0,26.26984126984127,149.6031746031746,20.396825396825395,325.0,32.77777777777778,325.0,-280.39682539682536,-325.0,-325.0,-325.0,-1.0317460317460316,-1.984126984126984,-166.26984126984127
325.0,25.476190476190474,151.5079365079365,-222.61904761904762,154.04761904761904,-325.0,154.36507936507937,325.0,178.17460317460316,35.95238095238095,325.0,26.26984126984127,149.6031746031746,20.396825396825395,325.0,32.77777777777778,325.0,-280.39682539682536,-325.0,-325.0,-325.0,-1.0317460317460316,-1.984126984126984,-166.26984126984127
233.57142857142856,-11.19047619047619,155.95238095238093,-154.84126984126982,167.06349206349205,-91.98412698412697,71.66666666666666,309.1269841269841,110.71428571428571,68.80952380952381,323.25396825396825,165.79365079365078,231.19047619047618,163.88888888888889,-0.07936507936507936,-134.84126984126982,19.126984126984127,-300.39682539682536,-157.38095238095238,-71.66666666666666,-18.96825396825397,91.19047619047619,-10.555555555555555,-321.8253968253968
233.57142857142856,-11.19047619047619,155.95238095238093,-154.84126984126982,167.06349206349205,-91.98412698412697,71.66666666666666,309.1269841269841,110.71428571428571,68.80952380952381,323.25396825396825,165.79365079365078,231.19047619047618,163.88888888888889,-0.07936507936507936,-134.84126984126982,19.126984126984127,-300.39682539682536,-157.38095238095238,-71.66666666666666,-18.96825396825397,91.19047619047619,-10.555555555555555,-321.8253968253968
325.0,29.76190476190476,145.15873015873015,-212.61904761904762,147.85714285714286,-325.0,147.85714285714286,325.0,170.7142857142857,35.63492063492063,325.0,28.809523809523807,143.4126984126984,21.666666666666664,325.0,33.57142857142857,325.0,-268.4920634920635,-325.0,-325.0,-325.0,0.5555555555555556,-1.349206349206349,-321.8253968253968
325.0,29.76190476190476,145.15873015873015,-212.61904761904762,147.85714285714286,-325.0,147.85714285714286,325.0,170.7142857142857,35.63492063492063,325.0,28.809523809523807,143.4126984126984,21.666666666666664,325.0,33.57142857142857,325.0,-268.4920634920635,-325.0,-325.0,-325.0,0.5555555555555556,-1.349206349206349,-321.8253968253968
325.0,23.88888888888889,141.19047619047618,-206.9047619047619,143.88888888888889,-325.0,143.88888888888889,325.0,166.42857142857142,28.49206349206349,325.0,22.936507936507937,139.76190476190476,14.523809523809524,325.0,26.746031746031743,325.0,-261.8253968253968,-325.0,-324.8412698412698,-325.0,-0.23809523809523808,-2.9365079365079363,-321.8253968253968
325.0,23.88888888888889,141.19047619047618,-206.9047619047619,143.88888888888889,-325.0,143.88888888888889,325.0,166.42857142857142,28.49206349206349,325.0,22.936507936507937,139.76190476190476,14.523809523809524,325.0,26.746031746031743,325.0,-261.8253968253968,-325.0,-324.8412698412698,-325.0,-0.23809523809523808,-2.9365079365079363,-321.8253968253968
325.0,26.428571428571427,138.65079365079364,-202.77777777777777,141.5079365079365,-325.0,141.5079365079365,325.0,163.57142857142856,29.285714285714285,325.0,25.158730158730158,137.22222222222223,16.428571428571427,325.0,28.015873015873016,325.0,-257.38095238095235,-323.0952380952381,-320.55555555555554,-320.87301587301585,-1.0317460317460316,1.0317460317460316,-321.8253968253968
325.0,26.428571428571427,138.65079365079364,-202.77777777777777,141.5079365079365,-325.0,141.5079365079365,325.0,163.57142857142856,29.285714285714285,325.0,25.158730158730158,137.22222222222223,16.428571428571427,325.0,28.015873015873016,325.0,-257.38095238095235,-323.0952380952381,-320.55555555555554,-320.87301587301585,-1.0317460317460316,1.0317460317460316,-321.8253968253968
325.0,25.634920634920633,136.26984126984127,-199.28571428571428,139.12698412698413,-325.0,138.96825396825395,324.8412698412698,160.87301587301587,27.539682539682538,325.0,23.88888888888889,134.68253968253967,14.365079365079364,325.0,26.428571428571427,325.0,-253.09523809523807,-317.69841269841265,-315.1587301587301,-315.1587301587301,0.3968253968253968,-2.619047619047619,-321.8253968253968
325.0,25.634920634920633,136.26984126984127,-199.28571428571428,139.12698412698413,-325.0,138.96825396825395,324.8412698412698,160.87301587301587,27.539682539682538,325.0,23.88888888888889,134.68253968253967,14.365079365079364,325.0,26.428571428571427,325.0,-253.09523809523807,-317.69841269841265,-315.1587301587301,-315.1587301587301,0.3968253968253968,-2.619047619047619,-321.8253968253968
325.0,24.047619047619047,134.36507936507937,-196.42857142857142,137.53968253968253,-325.0,137.22222222222223,321.984126984127,158.96825396825395,24.68253968253968,325.0,22.3015873015873,132.93650793650792,12.3015873015873,325.0,23.88888888888889,325.0,-249.9206349206349,-313.57142857142856,-310.87301587301585,-311.031746031746,0.23809523809523808,-0.7142857142857142,-166.26984126984127
325.0,24.047619047619047,134.36507936507937,-196.42857142857142,137.53968253968253,-325.0,137.22222222222223,321.984126984127,158.96825396825395,24.68253968253968,325.0,22.3015873015873,132.93650793650792,12.3015873015873,325.0,23.88888888888889,325.0,-249.9206349206349,-313.57142857142856,-310.87301587301585,-311.031746031746,0.23809523809523808,-0.7142857142857142,-166.26984126984127
325.0,22.46031746031746,132.14285714285714,-192.93650793650792,135.15873015873015,-325.0,134.84126984126982,316.4285714285714,156.11111111111111,22.777777777777775,325.0,20.396825396825395,130.87301587301587,10.396825396825395,325.0,22.777777777777775,325.0,-245.47619047619045,-308.3333333333333,-305.4761904761905,-305.1587301587301,-0.7142857142857142,-1.349206349206349,-166.26984126984127
325.0,22.46031746031746,132.14285714285714,-192.93650793650792,135.15873015873015,-325.0,134.84126984126982,316.4285714285714,156.11111111111111,22.777777777777775,325.0,20.396825396825395,130.87301587301587,10.396825396825395,325.0,22.777777777777775,325.0,-245.47619047619045,-308.3333333333333,-305.4761904761905,-305.1587301587301,-0.7142857142857142,-1.349206349206349,-166.26984126984127
325.0,28.65079365079365,128.4920634920635,-187.53968253968253,131.66666666666666,-325.0,131.5079365079365,308.4920634920635,152.3015873015873,26.26984126984127,325.0,26.26984126984127,127.38095238095238,15.476190476190474,325.0,26.26984126984127,325.0,-239.44444444444443,-300.39682539682536,-297.85714285714283,-297.22222222222223,-1.6666666666666665,2.9365079365079363,-166.26984126984127
325.0,28.65079365079365,128.4920634920635,-187.53968253968253,131.66666666666666,-325.0,131.5079365079365,308.4920634920635,152.3015873015873,26.26984126984127,325.0,26.26984126984127,127.38095238095238,15.476190476190474,325.0,26.26984126984127,325.0,-239.44444444444443,-300.39682539682536,-297.85714285714283,-297.22222222222223,-1.6666666666666665,2.9365079365079363,-166.26984126984127
325.0,26.587301587301585,123.09523809523809,-179.28571428571428,126.26984126984127,-325.0,125.63492063492063,295.95238095238096,145.63492063492063,22.777777777777775,325.0,23.41269841269841,122.14285714285714,11.666666666666666,325.0,23.41269841269841,325.0,-229.12698412698413,-287.85714285714283,-285.1587301587301,-284.2063492063492,-1.6666666666666665,-1.8253968253968254,-166.26984126984127
325.0,26.587301587301585,123.09523809523809,-179.28571428571428,126.26984126984127,-325.0,125.63492063492063,295.95238095238096,145.63492063492063,22.777777777777775,325.0,23.41269841269841,122.14285714285714,11.666666666666666,325.0,23.41269841269841,325.0,-229.12698412698413,-287.85714285714283,-285.1587301587301,-284.2063492063492,-1.6666666666666665,-1.8253968253968254,-166.26984126984127
325.0,26.587301587301585,123.09523809523809,-179.28571428571428,126.26984126984127,-325.0,125.63492063492063,295.95238095238096,145.63492063492063,22.777777777777775,325.0,23.41269841269841,122.14285714285714,11.666666666666666,325.0,23.41269841269841,325.0,-229.12698412698413,-287.85714285714283,-285.1587301587301,-284.2063492063492,-1.6666666666666665,-1.8253968253968254,-166.26984126984127
325.0,26.587301587301585,123.09523809523809,-179.28571428571428,126.26984126984127,-325.0,125.63492063492063,295.95238095238096,145.63492063492063,22.777777777777775,325.0,23.41269841269841,122.14285714285714,11.666666666666666,325.0,23.41269841269841,325.0,-229.12698412698413,-287.85714285714283,-285.1587301587301,-284.2063492063492,-1.6666666666666665,-1.8253968253968254,-166.26984126984127
50.079365079365076,-19.444444444444443,-316.26984126984127,-17.698412698412696,-325.0,125.79365079365078,18.65079365079365,-173.73015873015873,22.936507936507937,-20.07936507936508,58.49206349206349,-15.317460317460316,-176.42857142857142,-8.65079365079365,56.42857142857142,-20.396825396825395,47.06349206349206,325.0,321.984126984127,325.0,-40.079365079365076,-0.3968253968253968,1.984126984126984,-321.8253968253968
50.079365079365076,-19.444444444444443,-316.26984126984127,-17.698412698412696,-325.0,125.79365079365078,18.65079365079365,-173.73015873015873,22.936507936507937,-20.07936507936508,58.49206349206349,-15.317460317460316,-176.42857142857142,-8.65079365079365,56.42857142857142,-20.396825396825395,47.06349206349206,325.0,321.984126984127,325.0,-40.079365079365076,-0.3968253968253968,1.984126984126984,-321.8253968253968
48.80952380952381,-17.38095238095238,-310.87301587301585,80.87301587301587,-325.0,107.6984126984127,18.333333333333332,-170.87301587301587,22.619047619047617,-17.38095238095238,57.698412698412696,-13.412698412698411,-175.79365079365078,-5.952380952380952,55.476190476190474,-18.015873015873016,46.269841269841265,325.0,316.58730158730157,325.0,-39.44444444444444,0.3968253968253968,-3.253968253968254,-321.8253968253968
48.80952380952381,-17.38095238095238,-310.87301587301585,80.87301587301587,-325.0,107.6984126984127,18.333333333333332,-170.87301587301587,22.619047619047617,-17.38095238095238,57.698412698412696,-13.412698412698411,-175.79365079365078,-5.952380952380952,55.476190476190474,-18.015873015873016,46.269841269841265,325.0,316.58730158730157,325.0,-39.44444444444444,0.3968253968253968,-3.253968253968254,-321.8253968253968
48.01587301587301,-20.238095238095237,-305.7936507936508,265.95238095238096,-325.0,124.04761904761904,18.015873015873016,-168.17460317460316,22.142857142857142,-20.396825396825395,56.58730158730158,-16.11111111111111,-175.15873015873015,-9.761904761904761,54.36507936507936,-20.873015873015873,45.63492063492063,325.0,311.3492063492063,325.0,-38.80952380952381,-1.1904761904761905,1.1904761904761905,-321.8253968253968
48.01587301587301,-20.238095238095237,-305.7936507936508,265.95238095238096,-325.0,124.04761904761904,18.015873015873016,-168.17460317460316,22.142857142857142,-20.396825396825395,56.58730158730158,-16.11111111111111,-175.15873015873015,-9.761904761904761,54.36507936507936,-20.873015873015873,45.63492063492063,325.0,311.3492063492063,325.0,-38.80952380952381,-1.1904761904761905,1.1904761904761905,-321.8253968253968
48.01587301587301,-18.80952380952381,-304.5238095238095,268.3333333333333,-325.0,143.25396825396825,18.015873015873016,-167.53968253968253,22.142857142857142,-18.96825396825397,56.42857142857142,-14.84126984126984,-174.84126984126982,-8.174603174603174,54.2063492063492,-19.92063492063492,45.63492063492063,325.0,310.07936507936506,325.0,-38.80952380952381,-1.984126984126984,2.3015873015873014,-321.8253968253968
48.01587301587301,-18.80952380952381,-304.5238095238095,268.3333333333333,-325.0,143.25396825396825,18.015873015873016,-167.53968253968253,22.142857142857142,-18.96825396825397,56.42857142857142,-14.84126984126984,-174.84126984126982,-8.174603174603174,54.2063492063492,-19.92063492063492,45.63492063492063,325.0,310.07936507936506,325.0,-38.80952380952381,-1.984126984126984,2.3015873015873014,-321.8253968253968
47.06349206349206,-16.587301587301585,-299.6031746031746,296.58730158730157,-325.0,194.2063492063492,17.698412698412696,-165.0,21.825396825396822,-16.587301587301585,55.476190476190474,-12.619047619047619,-174.36507936507937,-6.26984126984127,53.25396825396825,-17.539682539682538,44.68253968253968,325.0,305.0,325.0,-37.857142857142854,-1.349206349206349,2.7777777777777777,-321.8253968253968
47.06349206349206,-16.587301587301585,-299.6031746031746,296.58730158730157,-325.0,194.2063492063492,17.698412698412696,-165.0,21.825396825396822,-16.587301587301585,55.476190476190474,-12.619047619047619,-174.36507936507937,-6.26984126984127,53.25396825396825,-17.539682539682538,44.68253968253968,325.0,305.0,325.0,-37.857142857142854,-1.349206349206349,2.7777777777777777,-321.8253968253968
45.317460317460316,-23.253968253968253,-289.4444444444444,325.0,-325.0,254.36507936507934,17.063492063492063,-159.44444444444443,20.873015873015873,-22.46031746031746,53.41269841269841,-18.65079365079365,-173.09523809523807,-13.253968253968253,51.507936507936506,-23.41269841269841,42.93650793650794,325.0,294.8412698412698,325.0,-36.58730158730159,-0.5555555555555556,-0.07936507936507936,-166.26984126984127
45.317460317460316,-23.253968253968253,-289.4444444444444,325.0,-325.0,254.36507936507934,17.063492063492063,-159.44444444444443,20.873015873015873,-22.46031746031746,53.41269841269841,-18.65079365079365,-173.09523809523807,-13.253968253968253,51.507936507936506,-23.41269841269841,42.93650793650794,325.0,294.8412698412698,325.0,-36.58730158730159,-0.5555555555555556,-0.07936507936507936,-166.26984126984127
43.57142857142857,-25.0,-279.9206349206349,325.0,-325.0,284.68253968253964,16.428571428571427,-154.36507936507937,20.238095238095237,-24.047619047619047,51.507936507936506,-20.238095238095237,-171.66666666666666,-15.634920634920634,49.76190476190476,-25.0,41.507936507936506,325.0,285.3174603174603,325.0,-35.317460317460316,-0.23809523809523808,-0.5555555555555556,-166.26984126984127
43.57142857142857,-25.0,-279.9206349206349,325.0,-325.0,284.68253968253964,16.428571428571427,-154.36507936507937,20.238095238095237,-24.047619047619047,51.507936507936506,-20.238095238095237,-171.66666666666666,-15.634920634920634,49.76190476190476,-25.0,41.507936507936506,325.0,285.3174603174603,325.0,-35.317460317460316,-0.23809523809523808,-0.5555555555555556,-166.26984126984127
-86.42857142857143,159.76190476190476,-81.03174603174602,325.0,-38.01587301587301,115.95238095238095,-62.460317460317455,-58.650793650793645,-149.9206349206349,-3.253968253968254,-48.33333333333333,-12.142857142857142,-58.17460317460317,-4.365079365079365,-140.55555555555554,150.07936507936506,-34.2063492063492,314.8412698412698,89.44444444444444,151.34920634920633,-12.46031746031746,-13.571428571428571,-1.349206349206349,-166.26984126984127
-86.42857142857143,159.76190476190476,-81.03174603174602,325.0,-38.01587301587301,115.95238095238095,-62.460317460317455,-58.650793650793645,-149.9206349206349,-3.253968253968254,-48.33333333333333,-12.142857142857142,-58.17460317460317,-4.365079365079365,-140.55555555555554,150.07936507936506,-34.2063492063492,314.8412698412698,89.44444444444444,151.34920634920633,-12.46031746031746,-13.571428571428571,-1.349206349206349,-166.26984126984127
30.238095238095237,-5.317460317460317,-199.60317460317458,325.0,-282.77777777777777,325.0,-102.93650793650794,-111.34920634920634,-11.666666666666666,-2.9365079365079363,36.269841269841265,-0.07936507936507936,-151.984126984127,-1.507936507936508,35.0,-4.523809523809524,29.126984126984127,325.0,204.04761904761904,323.4126984126984,-24.84126984126984,0.873015873015873,-1.6666666666666665,-166.26984126984127
30.238095238095237,-5.317460317460317,-199.60317460317458,325.0,-282.77777777777777,325.0,-102.93650793650794,-111.34920634920634,-11.666666666666666,-2.9365079365079363,36.269841269841265,-0.07936507936507936,-151.984126984127,-1.507936507936508,35.0,-4.523809523809524,29.126984126984127,325.0,204.04761904761904,323.4126984126984,-24.84126984126984,0.873015873015873,-1.6666666666666665,-166.26984126984127
30.238095238095237,-5.317460317460317,-199.60317460317458,325.0,-282.77777777777777,325.0,-102.93650793650794,-111.34920634920634,-11.666666666666666,-2.9365079365079363,36.269841269841265,-0.07936507936507936,-151.984126984127,-1.507936507936508,35.0,-4.523809523809524,29.126984126984127,325.0,204.04761904761904,323.4126984126984,-24.84126984126984,0.873015873015873,-1.6666666666666665,-166.26984126984127
30.238095238095237,-5.317460317460317,-199.60317460317458,325.0,-282.77777777777777,325.0,-102.93650793650794,-111.34920634920634,-11.666666666666666,-2.9365079365079363,36.269841269841265,-0.07936507936507936,-151.984126984127,-1.507936507936508,35.0,-4.523809523809524,29.126984126984127,325.0,204.04761904761904,323.4126984126984,-24.84126984126984,0.873015873015873,-1.6666666666666665,-166.26984126984127
30.238095238095237,-5.317460317460317,-199.60317460317458,325.0,-282.77777777777777,325.0,-102.93650793650794,-111.34920634920634,-11.666666666666666,-2.9365079365079363,36.269841269841265,-0.07936507936507936,-151.984126984127,-1.507936507936508,35.0,-4.523809523809524,29.126984126984127,325.0,204.04761904761904,323.4126984126984,-24.84126984126984,0.873015873015873,-1.6666666666666665,-321.8253968253968
30.238095238095237,-5.317460317460317,-199.60317460317458,325.0,-282.77777777777777,325.0,-102.93650793650794,-111.34920634920634,-11.666666666666666,-2.9365079365079363,36.269841269841265,-0.07936507936507936,-151.984126984127,-1.507936507936508,35.0,-4.523809523809524,29.126984126984127,325.0,204.04761904761904,323.4126984126984,-24.84126984126984,0.873015873015873,-1.6666666666666665,-321.8253968253968
30.238095238095237,-5.317460317460317,-199.60317460317458,325.0,-282.77777777777777,325.0,-102.93650793650794,-111.34920634920634,-11.666666666666666,-2.9365079365079363,36.269841269841265,-0.07936507936507936,-151.984126984127,-1.507936507936508,35.0,-4.523809523809524,29.126984126984127,325.0,204.04761904761904,323.4126984126984,-24.84126984126984,0.873015873015873,-1.6666666666666665,-321.8253968253968
30.238095238095237,-5.317460317460317,-199.60317460317458,325.0,-282.77777777777777,325.0,-102.93650793650794,-111.34920634920634,-11.666666666666666,-2.9365079365079363,36.269841269841265,-0.07936507936507936,-151.984126984127,-1.507936507936508,35.0,-4.523809523809524,29.126984126984127,325.0,204.04761904761904,323.4126984126984,-24.84126984126984,0.873015873015873,-1.6666666666666665,-321.8253968253968
30.238095238095237,-5.317460317460317,-199.60317460317458,325.0,-282.77777777777777,325.0,-102.93650793650794,-111.34920634920634,-11.666666666666666,-2.9365079365079363,36.269841269841265,-0.07936507936507936,-151.984126984127,-1.507936507936508,35.0,-4.523809523809524,29.126984126984127,325.0,204.04761904761904,323.4126984126984,-24.84126984126984,0.873015873015873,-1.6666666666666665,-321.8253968253968
30.238095238095237,-5.317460317460317,-199.60317460317458,325.0,-282.77777777777777,325.0,-102.93650793650794,-111.34920634920634,-11.666666666666666,-2.9365079365079363,36.269841269841265,-0.07936507936507936,-151.984126984127,-1.507936507936508,35.0,-4.523809523809524,29.126984126984127,325.0,204.04761904761904,323.4126984126984,-24.84126984126984,0.873015873015873,-1.6666666666666665,-321.8253968253968
30.238095238095237,-5.317460317460317,-199.60317460317458,325.0,-282.77777777777777,325.0,-102.93650793650794,-111.34920634920634,-11.666666666666666,-2.9365079365079363,36.269841269841265,-0.07936507936507936,-151.984126984127,-1.507936507936508,35.0,-4.523809523809524,29.126984126984127,325.0,204.04761904761904,323.4126984126984,-24.84126984126984,0.873015873015873,-1.6666666666666665,-321.8253968253968
30.238095238095237,-5.317460317460317,-199.60317460317458,325.0,-282.77777777777777,325.0,-102.93650793650794,-111.34920634920634,-11.666666666666666,-2.9365079365079363,36.269841269841265,-0.07936507936507936,-151.984126984127,-1.507936507936508,35.0,-4.523809523809524,29.126984126984127,325.0,204.04761904761904,323.4126984126984,-24.84126984126984,0.873015873015873,-1.6666666666666665,-321.8253968253968
30.238095238095237,-5.317460317460317,-199.60317460317458,325.0,-282.77777777777777,325.0,-102.93650793650794,-111.34920634920634,-11.666666666666666,-2.9365079365079363,36.269841269841265,-0.07936507936507936,-151.984126984127,-1.507936507936508,35.0,-4.523809523809524,29.126984126984127,325.0,204.04761904761904,323.4126984126984,-24.84126984126984,0.873015873015873,-1.6666666666666665,-321.8253968253968
30.238095238095237,-5.317460317460317,-199.60317460317458,325.0,-282.77777777777777,325.0,-102.93650793650794,-111.34920634920634,-11.666666666666666,-2.9365079365079363,36.269841269841265,-0.07936507936507936,-151.984126984127,-1.507936507936508,35.0,-4.523809523809524,29.126984126984127,325.0,204.04761904761904,323.4126984126984,-24.84126984126984,0.873015873015873,-1.6666666666666665,-321.8253968253968
30.238095238095237,-5.317460317460317,-199.60317460317458,325.0,-282.77777777777777,325.0,-102.93650793650794,-111.34920634920634,-11.666666666666666,-2.9365079365079363,36.269841269841265,-0.07936507936507936,-151.984126984127,-1.507936507936508,35.0,-4.523809523809524,29.126984126984127,325.0,204.04761904761904,323.4126984126984,-24.84126984126984,0.873015873015873,-1.6666666666666665,-166.26984126984127
30.238095238095237,-5.317460317460317,-199.60317460317458,325.0,-282.77777777777777,325.0,-102.93650793650794,-111.34920634920634,-11.666666666666666,-2.9365079365079363,36.269841269841265,-0.07936507936507936,-151.984126984127,-1.507936507936508,35.0,-4.523809523809524,29.126984126984127,325.0,204.04761904761904,323.4126984126984,-24.84126984126984,0.873015873015873,-1.6666666666666665,-166.26984126984127
-147.38095238095238,7.063492063492063,-119.12698412698413,220.07936507936506,-170.55555555555554,238.49206349206347,-214.04761904761904,18.015873015873016,-102.46031746031746,11.666666666666666,-144.36507936507937,9.761904761904761,-177.38095238095238,9.603174603174603,-142.93650793650792,8.492063492063492,-112.14285714285714,214.2063492063492,121.66666666666666,192.93650793650792,107.06349206349206,0.5555555555555556,-2.142857142857143,-166.26984126984127
-147.38095238095238,7.063492063492063,-119.12698412698413,220.07936507936506,-170.55555555555554,238.49206349206347,-214.04761904761904,18.015873015873016,-102.46031746031746,11.666666666666666,-144.36507936507937,9.761904761904761,-177.38095238095238,9.603174603174603,-142.93650793650792,8.492063492063492,-112.14285714285714,214.2063492063492,121.66666666666666,192.93650793650792,107.06349206349206,0.5555555555555556,-2.142857142857143,-166.26984126984127
-255.15873015873015,144.36507936507937,41.98412698412698,-74.36507936507937,-259.9206349206349,317.85714285714283,1.507936507936508,-103.09523809523809,14.047619047619047,-7.063492063492063,-323.73015873015873,-99.12698412698413,-303.4126984126984,268.17460317460313,308.968253968254,102.77777777777777,-273.73015873015873,83.09523809523809,-285.6349206349206,42.3015873015873,-106.26984126984127,0.3968253968253968,-22.777777777777775,-166.26984126984127
-255.15873015873015,144.36507936507937,41.98412698412698,-74.36507936507937,-259.9206349206349,317.85714285714283,1.507936507936508,-103.09523809523809,14.047619047619047,-7.063492063492063,-323.73015873015873,-99.12698412698413,-303.4126984126984,268.17460317460313,308.968253968254,102.77777777777777,-273.73015873015873,83.09523809523809,-285.6349206349206,42.3015873015873,-106.26984126984127,0.3968253968253968,-22.777777777777775,-166.26984126984127
-255.15873015873015,144.36507936507937,41.98412698412698,-74.36507936507937,-259.9206349206349,317.85714285714283,1.507936507936508,-103.09523809523809,14.047619047619047,-7.063492063492063,-323.73015873015873,-99.12698412698413,-303.4126984126984,268.17460317460313,308.968253968254,102.77777777777777,-273.73015873015873,83.09523809523809,-285.6349206349206,42.3015873015873,-106.26984126984127,0.3968253968253968,-22.777777777777775,-166.26984126984127
-255.15873015873015,144.36507936507937,41.98412698412698,-74.36507936507937,-259.9206349206349,317.85714285714283,1.507936507936508,-103.09523809523809,14.047619047619047,-7.063492063492063,-323.73015873015873,-99.12698412698413,-303.4126984126984,268.17460317460313,308.968253968254,102.77777777777777,-273.73015873015873,83.09523809523809,-285.6349206349206,42.3015873015873,-106.26984126984127,0.3968253968253968,-22.777777777777775,-166.26984126984127
-255.15873015873015,144.36507936507937,41.98412698412698,-74.36507936507937,-259.9206349206349,317.85714285714283,1.507936507936508,-103.09523809523809,14.047619047619047,-7.063492063492063,-323.73015873015873,-99.12698412698413,-303.4126984126984,268.17460317460313,308.968253968254,102.77777777777777,-273.73015873015873,83.09523809523809,-285.6349206349206,42.3015873015873,-106.26984126984127,0.3968253968253968,-22.777777777777775,-166.26984126984127
-255.15873015873015,144.36507936507937,41.98412698412698,-74.36507936507937,-259.9206349206349,317.85714285714283,1.507936507936508,-103.09523809523809,14.047619047619047,-7.063492063492063,-323.73015873015873,-99.12698412698413,-303.4126984126984,268.17460317460313,308.968253968254,102.77777777777777,-273.73015873015873,83.09523809523809,-285.6349206349206,42.3015873015873,-106.26984126984127,0.3968253968253968,-22.777777777777775,-166.26984126984127
-290.07936507936506,84.2063492063492,2.7777777777777777,16.11111111111111,-157.06349206349205,175.63492063492063,-151.34920634920633,10.873015873015872,-82.61904761904762,11.349206349206348,-317.85714285714283,-38.01587301587301,-245.79365079365078,145.47619047619048,5.317460317460317,63.73015873015873,-254.2063492063492,89.28571428571428,-124.52380952380952,50.079365079365076,57.38095238095238,0.873015873015873,-10.079365079365079,-321.8253968253968
-290.07936507936506,84.2063492063492,2.7777777777777777,16.11111111111111,-157.06349206349205,175.63492063492063,-151.34920634920633,10.873015873015872,-82.61904761904762,11.349206349206348,-317.85714285714283,-38.01587301587301,-245.79365079365078,145.47619047619048,5.317460317460317,63.73015873015873,-254.2063492063492,89.28571428571428,-124.52380952380952,50.079365079365076,57.38095238095238,0.873015873015873,-10.079365079365079,-321.8253968253968
-231.5079365079365,13.888888888888888,-24.523809523809522,70.39682539682539,-37.22222222222222,21.507936507936506,-203.7301587301587,181.8253968253968,-120.07936507936508,18.80952380952381,-211.66666666666666,11.825396825396824,-124.68253968253967,13.571428571428571,-201.98412698412696,20.07936507936508,-156.26984126984127,64.52380952380952,24.68253968253968,38.80952380952381,145.15873015873015,-1.8253968253968254,-1.8253968253968254,-321.8253968253968
-231.5079365079365,13.888888888888888,-24.523809523809522,70.39682539682539,-37.22222222222222,21.507936507936506,-203.7301587301587,181.8253968253968,-120.07936507936508,18.80952380952381,-211.66666666666666,11.825396825396824,-124.68253968253967,13.571428571428571,-201.98412698412696,20.07936507936508,-156.26984126984127,64.52380952380952,24.68253968253968,38.80952380952381,145.15873015873015,-1.8253968253968254,-1.8253968253968254,-321.8253968253968
-199.9206349206349,10.873015873015872,-21.507936507936506,60.873015873015866,-32.61904761904762,-25.0,-176.58730158730157,181.03174603174602,-104.2063492063492,14.84126984126984,-184.2063492063492,8.333333333333332,-107.53968253968253,10.079365079365079,-175.95238095238093,18.65079365079365,-135.0,56.11111111111111,21.507936507936506,34.047619047619044,125.0,-1.349206349206349,-2.46031746031746,-321.8253968253968
-199.9206349206349,10.873015873015872,-21.507936507936506,60.873015873015866,-32.61904761904762,-25.0,-176.58730158730157,181.03174603174602,-104.2063492063492,14.84126984126984,-184.2063492063492,8.333333333333332,-107.53968253968253,10.079365079365079,-175.95238095238093,18.65079365079365,-135.0,56.11111111111111,21.507936507936506,34.047619047619044,125.0,-1.349206349206349,-2.46031746031746,-321.8253968253968
-199.9206349206349,10.873015873015872,-21.507936507936506,60.873015873015866,-32.61904761904762,-25.0,-176.58730158730157,181.03174603174602,-104.2063492063492,14.84126984126984,-184.2063492063492,8.333333333333332,-107.53968253968253,10.079365079365079,-175.95238095238093,18.65079365079365,-135.0,56.11111111111111,21.507936507936506,34.047619047619044,125.0,-1.349206349206349,-2.46031746031746,-321.8253968253968
-199.9206349206349,10.873015873015872,-21.507936507936506,60.873015873015866,-32.61904761904762,-25.0,-176.58730158730157,181.03174603174602,-104.2063492063492,14.84126984126984,-184.2063492063492,8.333333333333332,-107.53968253968253,10.079365079365079,-175.95238095238093,18.65079365079365,-135.0,56.11111111111111,21.507936507936506,34.047619047619044,125.0,-1.349206349206349,-2.46031746031746,-321.8253968253968
-199.9206349206349,10.873015873015872,-21.507936507936506,60.873015873015866,-32.61904761904762,-25.0,-176.58730158730157,181.03174603174602,-104.2063492063492,14.84126984126984,-184.2063492063492,8.333333333333332,-107.53968253968253,10.079365079365079,-175.95238095238093,18.65079365079365,-135.0,56.11111111111111,21.507936507936506,34.047619047619044,125.0,-1.349206349206349,-2.46031746031746,-321.8253968253968
-199.9206349206349,10.873015873015872,-21.507936507936506,60.873015873015866,-32.61904761904762,-25.0,-176.58730158730157,181.03174603174602,-104.2063492063492,14.84126984126984,-184.2063492063492,8.333333333333332,-107.53968253968253,10.079365079365079,-175.95238095238093,18.65079365079365,-135.0,56.11111111111111,21.507936507936506,34.047619047619044,125.0,-1.349206349206349,-2.46031746031746,-321.8253968253968
-199.9206349206349,10.873015873015872,-21.507936507936506,60.873015873015866,-32.61904761904762,-25.0,-176.58730158730157,181.03174603174602,-104.2063492063492,14.84126984126984,-184.2063492063492,8.333333333333332,-107.53968253968253,10.079365079365079,-175.95238095238093,18.65079365079365,-135.0,56.11111111111111,21.507936507936506,34.047619047619044,125.0,-1.349206349206349,-2.46031746031746,-166.26984126984127
-199.9206349206349,10.873015873015872,-21.507936507936506,60.873015873015866,-32.61904761904762,-25.0,-176.58730158730157,181.03174603174602,-104.2063492063492,14.84126984126984,-184.2063492063492,8.333333333333332,-107.53968253968253,10.079365079365079,-175.95238095238093,18.65079365079365,-135.0,56.11111111111111,21.507936507936506,34.047619047619044,125.0,-1.349206349206349,-2.46031746031746,-166.26984126984127
-128.96825396825395,3.095238095238095,50.39682539682539,39.44444444444444,9.285714285714285,6.111111111111111,-114.52380952380952,162.14285714285714,-67.85714285714285,2.7777777777777777,-120.55555555555554,-0.23809523809523808,-69.28571428571428,-1.349206349206349,-115.15873015873015,5.7936507936507935,-87.38095238095238,36.74603174603175,-40.55555555555555,-134.84126984126982,80.07936507936508,-0.3968253968253968,-2.142857142857143,-166.26984126984127
-128.96825396825395,3.095238095238095,50.39682539682539,39.44444444444444,9.285714285714285,6.111111111111111,-114.52380952380952,162.14285714285714,-67.85714285714285,2.7777777777777777,-120.55555555555554,-0.23809523809523808,-69.28571428571428,-1.349206349206349,-115.15873015873015,5.7936507936507935,-87.38095238095238,36.74603174603175,-40.55555555555555,-134.84126984126982,80.07936507936508,-0.3968253968253968,-2.142857142857143,-166.26984126984127
-29.76190476190476,2.142857142857143,162.3015873015873,9.920634920634921,157.06349206349205,65.79365079365078,-27.698412698412696,108.49206349206348,-16.904761904761905,0.873015873015873,-30.396825396825395,4.365079365079365,-16.11111111111111,-0.7142857142857142,-29.126984126984127,1.507936507936508,-21.03174603174603,9.444444444444445,-1.507936507936508,36.269841269841265,18.015873015873016,1.6666666666666665,-2.619047619047619,-166.26984126984127
-29.76190476190476,2.142857142857143,162.3015873015873,9.920634920634921,157.06349206349205,65.79365079365078,-27.698412698412696,108.49206349206348,-16.904761904761905,0.873015873015873,-30.396825396825395,4.365079365079365,-16.11111111111111,-0.7142857142857142,-29.126984126984127,1.507936507936508,-21.03174603174603,9.444444444444445,-1.507936507936508,36.269841269841265,18.015873015873016,1.6666666666666665,-2.619047619047619,-166.26984126984127
-29.76190476190476,2.142857142857143,162.3015873015873,9.920634920634921,157.06349206349205,65.79365079365078,-27.698412698412696,108.49206349206348,-16.904761904761905,0.873015873015873,-30.396825396825395,4.365079365079365,-16.11111111111111,-0.7142857142857142,-29.126984126984127,1.507936507936508,-21.03174603174603,9.444444444444445,-1.507936507936508,36.269841269841265,18.015873015873016,1.6666666666666665,-2.619047619047619,-166.26984126984127
-29.76190476190476,2.142857142857143,162.3015873015873,9.920634920634921,157.06349206349205,65.79365079365078,-27.698412698412696,108.49206349206348,-16.904761904761905,0.873015873015873,-30.396825396825395,4.365079365079365,-16.11111111111111,-0.7142857142857142,-29.126984126984127,1.507936507936508,-21.03174603174603,9.444444444444445,-1.507936507936508,36.269841269841265,18.015873015873016,1.6666666666666665,-2.619047619047619,-166.26984126984127
-28.65079365079365,2.142857142857143,162.46031746031744,9.444444444444445,158.65079365079364,54.841269841269835,-26.746031746031743,83.57142857142857,-16.587301587301585,1.1904761904761905,-29.444444444444443,4.841269841269841,-15.476190476190474,-0.23809523809523808,-28.174603174603174,1.984126984126984,-20.238095238095237,9.285714285714285,-117.22222222222221,63.41269841269841,17.539682539682538,1.6666666666666665,-1.8253968253968254,-166.26984126984127
-28.65079365079365,2.142857142857143,162.46031746031744,9.444444444444445,158.65079365079364,54.841269841269835,-26.746031746031743,83.57142857142857,-16.587301587301585,1.1904761904761905,-29.444444444444443,4.841269841269841,-15.476190476190474,-0.23809523809523808,-28.174603174603174,1.984126984126984,-20.238095238095237,9.285714285714285,-117.22222222222221,63.41269841269841,17.539682539682538,1.6666666666666665,-1.8253968253968254,-166.26984126984127
-11.031746031746032,-4.682539682539682,114.36507936507935,3.73015873015873,133.73015873015873,-164.68253968253967,-10.555555555555555,53.57142857142857,96.58730158730158,-3.4126984126984126,-11.825396825396824,-2.9365079365079363,-1.349206349206349,-4.682539682539682,-11.666666666666666,-3.73015873015873,158.65079365079364,4.0476190476190474,-44.2063492063492,-72.14285714285714,-9.603174603174603,3.095238095238095,-0.3968253968253968,-321.8253968253968
-11.031746031746032,-4.682539682539682,114.36507936507935,3.73015873015873,133.73015873015873,-164.68253968253967,-10.555555555555555,53.57142857142857,96.58730158730158,-3.4126984126984126,-11.825396825396824,-2.9365079365079363,-1.349206349206349,-4.682539682539682,-11.666666666666666,-3.73015873015873,158.65079365079364,4.0476190476190474,-44.2063492063492,-72.14285714285714,-9.603174603174603,3.095238095238095,-0.3968253968253968,-321.8253968253968
-11.031746031746032,-1.349206349206349,116.74603174603173,2.7777777777777777,135.95238095238093,-205.79365079365078,-10.555555555555555,57.857142857142854,102.46031746031746,-0.23809523809523808,-11.666666666666666,1.1904761904761905,5.476190476190476,-0.3968253968253968,-11.507936507936508,-0.3968253968253968,39.12698412698413,3.888888888888889,-59.6031746031746,-163.25396825396825,-38.65079365079365,2.142857142857143,-0.7142857142857142,-321.8253968253968
-11.031746031746032,-1.349206349206349,116.74603174603173,2.7777777777777777,135.95238095238093,-205.79365079365078,-10.555555555555555,57.857142857142854,102.46031746031746,-0.23809523809523808,-11.666666666666666,1.1904761904761905,5.476190476190476,-0.3968253968253968,-11.507936507936508,-0.3968253968253968,39.12698412698413,3.888888888888889,-59.6031746031746,-163.25396825396825,-38.65079365079365,2.142857142857143,-0.7142857142857142,-321.8253968253968
-10.714285714285714,3.095238095238095,119.76190476190476,4.2063492063492065,139.44444444444443,-247.2222222222222,-10.555555555555555,58.8095238095238,111.66666666666666,4.682539682539682,-11.507936507936508,4.682539682539682,17.38095238095238,3.095238095238095,-11.19047619047619,4.523809523809524,-5.7936507936507935,3.73015873015873,28.49206349206349,-5.0,1.6666666666666665,0.23809523809523808,-0.7142857142857142,-321.8253968253968
-10.714285714285714,3.095238095238095,119.76190476190476,4.2063492063492065,139.44444444444443,-247.2222222222222,-10.555555555555555,58.8095238095238,111.66666666666666,4.682539682539682,-11.507936507936508,4.682539682539682,17.38095238095238,3.095238095238095,-11.19047619047619,4.523809523809524,-5.7936507936507935,3.73015873015873,28.49206349206349,-5.0,1.6666666666666665,0.23809523809523808,-0.7142857142857142,-321.8253968253968
-10.714285714285714,8.492063492063492,123.88888888888889,1.1904761904761905,143.57142857142856,-290.23809523809524,-10.396825396825395,55.63492063492063,119.12698412698413,9.603174603174603,-11.507936507936508,10.873015873015872,25.952380952380953,9.126984126984127,-11.19047619047619,9.285714285714285,-105.31746031746032,3.73015873015873,60.079365079365076,-218.96825396825395,-32.460317460317455,-0.873015873015873,-0.5555555555555556,-321.8253968253968
-10.714285714285714,8.492063492063492,123.88888888888889,1.1904761904761905,143.57142857142856,-290.23809523809524,-10.396825396825395,55.63492063492063,119.12698412698413,9.603174603174603,-11.507936507936508,10.873015873015872,25.952380952380953,9.126984126984127,-11.19047619047619,9.285714285714285,-105.31746031746032,3.73015873015873,60.079365079365076,-218.96825396825395,-32.460317460317455,-0.873015873015873,-0.5555555555555556,-321.8253968253968
-10.555555555555555,0.5555555555555556,115.63492063492063,3.888888888888889,135.3174603174603,-269.1269841269841,-10.079365079365079,48.650793650793645,114.68253968253967,2.142857142857143,-11.349206349206348,1.6666666666666665,27.38095238095238,0.23809523809523808,-11.031746031746032,1.8253968253968254,75.79365079365078,3.73015873015873,172.14285714285714,1.349206349206349,4.841269841269841,0.23809523809523808,1.1904761904761905,-321.8253968253968
-10.555555555555555,0.5555555555555556,115.63492063492063,3.888888888888889,135.3174603174603,-269.1269841269841,-10.079365079365079,48.650793650793645,114.68253968253967,2.142857142857143,-11.349206349206348,1.6666666666666665,27.38095238095238,0.23809523809523808,-11.031746031746032,1.8253968253968254,75.79365079365078,3.73015873015873,172.14285714285714,1.349206349206349,4.841269841269841,0.23809523809523808,1.1904761904761905,-321.8253968253968
-10.396825396825395,-2.46031746031746,111.03174603174602,-1.8253968253968254,131.19047619047618,-282.6190476190476,-10.079365079365079,36.74603174603175,113.73015873015872,-1.349206349206349,-11.19047619047619,-0.7142857142857142,27.857142857142854,-1.6666666666666665,-10.873015873015872,-1.6666666666666665,-39.92063492063492,3.571428571428571,74.2063492063492,-227.53968253968253,-49.285714285714285,-0.5555555555555556,-0.5555555555555556,-166.26984126984127
-10.396825396825395,-2.46031746031746,111.03174603174602,-1.8253968253968254,131.19047619047618,-282.6190476190476,-10.079365079365079,36.74603174603175,113.73015873015872,-1.349206349206349,-11.19047619047619,-0.7142857142857142,27.857142857142854,-1.6666666666666665,-10.873015873015872,-1.6666666666666665,-39.92063492063492,3.571428571428571,74.2063492063492,-227.53968253968253,-49.285714285714285,-0.5555555555555556,-0.5555555555555556,-166.26984126984127
-10.238095238095237,0.23809523809523808,113.09523809523809,3.571428571428571,133.25396825396825,-272.6190476190476,-9.920634920634921,41.03174603174603,119.28571428571428,1.8253968253968254,-11.031746031746032,1.349206349206349,35.79365079365079,-0.07936507936507936,-10.714285714285714,1.984126984126984,88.65079365079364,3.571428571428571,157.69841269841268,-16.428571428571427,5.158730158730158,-0.23809523809523808,-0.07936507936507936,-166.26984126984127
-10.238095238095237,0.23809523809523808,113.09523809523809,3.571428571428571,133.25396825396825,-272.6190476190476,-9.920634920634921,41.03174603174603,119.28571428571428,1.8253968253968254,-11.031746031746032,1.349206349206349,35.79365079365079,-0.07936507936507936,-10.714285714285714,1.984126984126984,88.65079365079364,3.571428571428571,157.69841269841268,-16.428571428571427,5.158730158730158,-0.23809523809523808,-0.07936507936507936,-166.26984126984127
14.84126984126984,-6.111111111111111,99.28571428571428,4.0476190476190474,120.07936507936508,65.31746031746032,40.079365079365076,42.460317460317455,128.33333333333331,-4.365079365079365,14.682539682539682,-5.634920634920634,62.3015873015873,-6.428571428571428,69.76190476190476,-4.682539682539682,257.22222222222223,3.095238095238095,34.52380952380952,70.87301587301587,-22.619047619047617,-0.7142857142857142,-0.873015873015873,-166.26984126984127
14.84126984126984,-6.111111111111111,99.28571428571428,4.0476190476190474,120.07936507936508,65.31746031746032,40.079365079365076,42.460317460317455,128.33333333333331,-4.365079365079365,14.682539682539682,-5.634920634920634,62.3015873015873,-6.428571428571428,69.76190476190476,-4.682539682539682,257.22222222222223,3.095238095238095,34.52380952380952,70.87301587301587,-22.619047619047617,-0.7142857142857142,-0.873015873015873,-166.26984126984127
132.93650793650792,-5.0,94.52380952380952,0.5555555555555556,115.95238095238095,316.90476190476187,144.68253968253967,49.6031746031746,137.38095238095238,-3.73015873015873,171.34920634920633,-4.682539682539682,83.73015873015872,-5.158730158730158,266.26984126984127,-4.365079365079365,325.0,1.507936507936508,7.698412698412698,81.66666666666666,-184.68253968253967,-0.07936507936507936,-0.23809523809523808,-166.26984126984127
132.93650793650792,-5.0,94.52380952380952,0.5555555555555556,115.95238095238095,316.90476190476187,144.68253968253967,49.6031746031746,137.38095238095238,-3.73015873015873,171.34920634920633,-4.682539682539682,83.73015873015872,-5.158730158730158,266.26984126984127,-4.365079365079365,325.0,1.507936507936508,7.698412698412698,81.66666666666666,-184.68253968253967,-0.07936507936507936,-0.23809523809523808,-166.26984126984127
199.76190476190476,-7.3809523809523805,84.68253968253968,5.0,105.63492063492063,181.5079365079365,240.3968253968254,30.87301587301587,142.3015873015873,-5.476190476190476,170.3968253968254,-7.5396825396825395,104.04761904761904,-7.3809523809523805,247.2222222222222,-5.634920634920634,325.0,-9.603174603174603,-116.26984126984127,159.76190476190476,-101.98412698412697,-3.888888888888889,0.07936507936507936,-166.26984126984127
199.76190476190476,-7.3809523809523805,84.68253968253968,5.0,105.63492063492063,181.5079365079365,240.3968253968254,30.87301587301587,142.3015873015873,-5.476190476190476,170.3968253968254,-7.5396825396825395,104.04761904761904,-7.3809523809523805,247.2222222222222,-5.634920634920634,325.0,-9.603174603174603,-116.26984126984127,159.76190476190476,-101.98412698412697,-3.888888888888889,0.07936507936507936,-166.26984126984127
325.0,-0.3968253968253968,81.82539682539682,-2.46031746031746,103.25396825396825,47.38095238095238,239.76190476190476,37.857142857142854,153.73015873015873,0.873015873015873,325.0,-0.3968253968253968,130.55555555555554,1.0317460317460316,325.0,-0.07936507936507936,325.0,-54.047619047619044,-325.0,-53.41269841269841,-325.0,-0.23809523809523808,-0.7142857142857142,-321.8253968253968
325.0,-0.3968253968253968,81.82539682539682,-2.46031746031746,103.25396825396825,47.38095238095238,239.76190476190476,37.857142857142854,153.73015873015873,0.873015873015873,325.0,-0.3968253968253968,130.55555555555554,1.0317460317460316,325.0,-0.07936507936507936,325.0,-54.047619047619044,-325.0,-53.41269841269841,-325.0,-0.23809523809523808,-0.7142857142857142,-321.8253968253968
-191.66666666666666,-5.476190476190476,62.61904761904761,-70.55555555555556,82.14285714285714,-325.0,16.746031746031743,2.46031746031746,147.06349206349205,-4.2063492063492065,-137.85714285714286,-6.587301587301587,141.984126984127,-325.0,-64.52380952380952,-5.0,-237.69841269841268,-144.2063492063492,-209.60317460317458,-250.2380952380952,-206.74603174603175,-2.142857142857143,0.7142857142857142,-321.8253968253968
-191.66666666666666,-5.476190476190476,62.61904761904761,-70.55555555555556,82.14285714285714,-325.0,16.746031746031743,2.46031746031746,147.06349206349205,-4.2063492063492065,-137.85714285714286,-6.587301587301587,141.984126984127,-325.0,-64.52380952380952,-5.0,-237.69841269841268,-144.2063492063492,-209.60317460317458,-250.2380952380952,-206.74603174603175,-2.142857142857143,0.7142857142857142,-321.8253968253968
-101.5079365079365,-0.23809523809523808,64.52380952380952,-81.5079365079365,83.73015873015872,-325.0,55.15873015873016,19.285714285714285,149.6031746031746,0.7142857142857142,-45.79365079365079,-1.0317460317460316,148.015873015873,-325.0,4.682539682539682,0.07936507936507936,-251.19047619047618,-151.66666666666666,-221.34920634920633,-287.6984126984127,-265.95238095238096,0.07936507936507936,0.23809523809523808,-321.8253968253968
-101.5079365079365,-0.23809523809523808,64.52380952380952,-81.5079365079365,83.73015873015872,-325.0,55.15873015873016,19.285714285714285,149.6031746031746,0.7142857142857142,-45.79365079365079,-1.0317460317460316,148.015873015873,-325.0,4.682539682539682,0.07936507936507936,-251.19047619047618,-151.66666666666666,-221.34920634920633,-287.6984126984127,-265.95238095238096,0.07936507936507936,0.23809523809523808,-321.8253968253968
-110.39682539682539,-54.68253968253968,108.01587301587301,-264.8412698412698,52.14285714285714,112.93650793650794,-316.90476190476187,196.26984126984127,-110.39682539682539,-83.4126984126984,41.507936507936506,121.98412698412697,-189.9206349206349,-135.15873015873015,204.52380952380952,-40.55555555555555,-283.0952380952381,-162.14285714285714,82.61904761904762,229.9206349206349,-325.0,-99.12698412698413,-20.396825396825395,-321.8253968253968
-110.39682539682539,-54.68253968253968,108.01587301587301,-264.8412698412698,52.14285714285714,112.93650793650794,-316.90476190476187,196.26984126984127,-110.39682539682539,-83.4126984126984,41.507936507936506,121.98412698412697,-189.9206349206349,-135.15873015873015,204.52380952380952,-40.55555555555555,-283.0952380952381,-162.14285714285714,82.61904761904762,229.9206349206349,-325.0,-99.12698412698413,-20.396825396825395,-321.8253968253968
-110.39682539682539,-54.68253968253968,108.01587301587301,-264.8412698412698,52.14285714285714,112.93650793650794,-316.90476190476187,196.26984126984127,-110.39682539682539,-83.4126984126984,41.507936507936506,121.98412698412697,-189.9206349206349,-135.15873015873015,204.52380952380952,-40.55555555555555,-283.0952380952381,-162.14285714285714,82.61904761904762,229.9206349206349,-325.0,-99.12698412698413,-20.396825396825395,-321.8253968253968
-110.39682539682539,-54.68253968253968,108.01587301587301,-264.8412698412698,52.14285714285714,112.93650793650794,-316.90476190476187,196.26984126984127,-110.39682539682539,-83.4126984126984,41.507936507936506,121.98412698412697,-189.9206349206349,-135.15873015873015,204.52380952380952,-40.55555555555555,-283.0952380952381,-162.14285714285714,82.61904761904762,229.9206349206349,-325.0,-99.12698412698413,-20.396825396825395,-321.8253968253968
-110.39682539682539,-54.68253968253968,108.01587301587301,-264.8412698412698,52.14285714285714,112.93650793650794,-316.90476190476187,196.26984126984127,-110.39682539682539,-83.4126984126984,41.507936507936506,121.98412698412697,-189.9206349206349,-135.15873015873015,204.52380952380952,-40.55555555555555,-283.0952380952381,-162.14285714285714,82.61904761904762,229.9206349206349,-325.0,-99.12698412698413,-20.396825396825395,-166.26984126984127
-110.39682539682539,-54.68253968253968,108.01587301587301,-264.8412698412698,52.14285714285714,112.93650793650794,-316.90476190476187,196.26984126984127,-110.39682539682539,-83.4126984126984,41.507936507936506,121.98412698412697,-189.9206349206349,-135.15873015873015,204.52380952380952,-40.55555555555555,-283.0952380952381,-162.14285714285714,82.61904761904762,229.9206349206349,-325.0,-99.12698412698413,-20.396825396825395,-166.26984126984127
-26.746031746031743,-19.92063492063492,77.6984126984127,-192.77777777777777,56.11111111111111,69.6031746031746,-78.4920634920635,113.09523809523809,3.095238095238095,-34.52380952380952,82.61904761904762,67.38095238095238,-29.285714285714285,-133.73015873015873,159.9206349206349,-12.777777777777777,-227.69841269841268,-162.46031746031744,80.87301587301587,66.58730158730158,-229.60317460317458,-48.49206349206349,-10.238095238095237,-166.26984126984127
-26.746031746031743,-19.92063492063492,77.6984126984127,-192.77777777777777,56.11111111111111,69.6031746031746,-78.4920634920635,113.09523809523809,3.095238095238095,-34.52380952380952,82.61904761904762,67.38095238095238,-29.285714285714285,-133.73015873015873,159.9206349206349,-12.777777777777777,-227.69841269841268,-162.46031746031744,80.87301587301587,66.58730158730158,-229.60317460317458,-48.49206349206349,-10.238095238095237,-166.26984126984127
56.904761904761905,14.84126984126984,47.38095238095238,-120.71428571428571,60.079365079365076,26.428571428571427,160.07936507936506,29.920634920634917,116.58730158730158,14.523809523809524,123.88888888888889,12.936507936507935,131.5079365079365,-132.14285714285714,115.47619047619047,15.158730158730158,-172.3015873015873,-162.61904761904762,79.12698412698413,-96.74603174603175,-134.04761904761904,2.142857142857143,-0.07936507936507936,-166.26984126984127
56.904761904761905,14.84126984126984,47.38095238095238,-120.71428571428571,60.079365079365076,26.428571428571427,160.07936507936506,29.920634920634917,116.58730158730158,14.523809523809524,123.88888888888889,12.936507936507935,131.5079365079365,-132.14285714285714,115.47619047619047,15.158730158730158,-172.3015873015873,-162.61904761904762,79.12698412698413,-96.74603174603175,-134.04761904761904,2.142857142857143,-0.07936507936507936,-166.26984126984127
56.904761904761905,14.84126984126984,47.38095238095238,-120.71428571428571,60.079365079365076,26.428571428571427,160.07936507936506,29.920634920634917,116.58730158730158,14.523809523809524,123.88888888888889,12.936507936507935,131.5079365079365,-132.14285714285714,115.47619047619047,15.158730158730158,-172.3015873015873,-162.61904761904762,79.12698412698413,-96.74603174603175,-134.04761904761904,2.142857142857143,-0.07936507936507936,-166.26984126984127
56.904761904761905,14.84126984126984,47.38095238095238,-120.71428571428571,60.079365079365076,26.428571428571427,160.07936507936506,29.920634920634917,116.58730158730158,14.523809523809524,123.88888888888889,12.936507936507935,131.5079365079365,-132.14285714285714,115.47619047619047,15.158730158730158,-172.3015873015873,-162.61904761904762,79.12698412698413,-96.74603174603175,-134.04761904761904,2.142857142857143,-0.07936507936507936,-166.26984126984127
-118.01587301587301,-0.7142857142857142,11.19047619047619,-100.07936507936508,18.174603174603174,46.74603174603175,17.38095238095238,-42.77777777777778,44.047619047619044,0.3968253968253968,-81.98412698412697,-1.507936507936508,56.269841269841265,245.3174603174603,-58.8095238095238,1.1904761904761905,-268.4920634920635,-76.42857142857143,-145.63492063492063,64.04761904761905,89.76190476190476,-2.46031746031746,-0.23809523809523808,-166.26984126984127
-118.01587301587301,-0.7142857142857142,11.19047619047619,-100.07936507936508,18.174603174603174,46.74603174603175,17.38095238095238,-42.77777777777778,44.047619047619044,0.3968253968253968,-81.98412698412697,-1.507936507936508,56.269841269841265,245.3174603174603,-58.8095238095238,1.1904761904761905,-268.4920634920635,-76.42857142857143,-145.63492063492063,64.04761904761905,89.76190476190476,-2.46031746031746,-0.23809523809523808,-166.26984126984127
41.507936507936506,-3.888888888888889,6.111111111111111,-138.8095238095238,13.412698412698411,73.88888888888889,35.95238095238095,-25.952380952380953,38.49206349206349,-5.158730158730158,95.63492063492063,-5.7936507936507935,50.238095238095234,-19.6031746031746,84.68253968253968,-4.523809523809524,-174.68253968253967,-110.39682539682539,-210.2380952380952,-37.38095238095238,-106.74603174603175,1.6666666666666665,-0.7142857142857142,-321.8253968253968
41.507936507936506,-3.888888888888889,6.111111111111111,-138.8095238095238,13.412698412698411,73.88888888888889,35.95238095238095,-25.952380952380953,38.49206349206349,-5.158730158730158,95.63492063492063,-5.7936507936507935,50.238095238095234,-19.6031746031746,84.68253968253968,-4.523809523809524,-174.68253968253967,-110.39682539682539,-210.2380952380952,-37.38095238095238,-106.74603174603175,1.6666666666666665,-0.7142857142857142,-321.8253968253968
-82.46031746031746,-3.571428571428571,8.015873015873016,-92.46031746031746,15.158730158730158,46.11111111111111,-6.746031746031746,-44.84126984126984,40.55555555555555,-2.46031746031746,-76.42857142857143,-4.365079365079365,52.14285714285714,247.38095238095238,-59.6031746031746,-1.8253968253968254,-231.03174603174602,-79.92063492063491,-195.79365079365078,57.22222222222222,92.14285714285714,-2.7777777777777777,-0.3968253968253968,-321.8253968253968
-82.46031746031746,-3.571428571428571,8.015873015873016,-92.46031746031746,15.158730158730158,46.11111111111111,-6.746031746031746,-44.84126984126984,40.55555555555555,-2.46031746031746,-76.42857142857143,-4.365079365079365,52.14285714285714,247.38095238095238,-59.6031746031746,-1.8253968253968254,-231.03174603174602,-79.92063492063491,-195.79365079365078,57.22222222222222,92.14285714285714,-2.7777777777777777,-0.3968253968253968,-321.8253968253968
77.53968253968253,-5.476190476190476,4.523809523809524,-127.85714285714285,11.507936507936508,56.11111111111111,21.507936507936506,-28.809523809523807,36.269841269841265,-6.746031746031746,93.73015873015872,-7.063492063492063,47.698412698412696,-3.253968253968254,79.12698412698413,-5.952380952380952,-163.73015873015873,-109.92063492063491,-181.19047619047618,-44.2063492063492,-95.79365079365078,2.619047619047619,-1.8253968253968254,-321.8253968253968
77.53968253968253,-5.476190476190476,4.523809523809524,-127.85714285714285,11.507936507936508,56.11111111111111,21.507936507936506,-28.809523809523807,36.269841269841265,-6.746031746031746,93.73015873015872,-7.063492063492063,47.698412698412696,-3.253968253968254,79.12698412698413,-5.952380952380952,-163.73015873015873,-109.92063492063491,-181.19047619047618,-44.2063492063492,-95.79365079365078,2.619047619047619,-1.8253968253968254,-321.8253968253968
44.047619047619044,-5.317460317460317,5.158730158730158,-116.1111111111111,12.3015873015873,29.76190476190476,8.492063492063492,-29.126984126984127,36.904761904761905,-5.158730158730158,7.698412698412698,-6.26984126984127,48.650793650793645,93.09523809523809,12.777777777777777,-4.841269841269841,-181.8253968253968,-83.73015873015872,-206.42857142857142,4.0476190476190474,-4.365079365079365,0.07936507936507936,-0.5555555555555556,-321.8253968253968
44.047619047619044,-5.317460317460317,5.158730158730158,-116.1111111111111,12.3015873015873,29.76190476190476,8.492063492063492,-29.126984126984127,36.904761904761905,-5.158730158730158,7.698412698412698,-6.26984126984127,48.650793650793645,93.09523809523809,12.777777777777777,-4.841269841269841,-181.8253968253968,-83.73015873015872,-206.42857142857142,4.0476190476190474,-4.365079365079365,0.07936507936507936,-0.5555555555555556,-321.8253968253968
139.76190476190476,-1.0317460317460316,8.492063492063492,-122.6190476190476,15.317460317460316,47.38095238095238,49.285714285714285,-6.746031746031746,39.76190476190476,-2.3015873015873014,87.53968253968253,-2.7777777777777777,51.19047619047619,-0.07936507936507936,93.25396825396825,-1.6666666666666665,-107.53968253968253,-85.31746031746032,-256.4285714285714,-20.238095238095237,-85.15873015873015,2.46031746031746,-1.1904761904761905,-321.8253968253968
139.76190476190476,-1.0317460317460316,8.492063492063492,-122.6190476190476,15.317460317460316,47.38095238095238,49.285714285714285,-6.746031746031746,39.76190476190476,-2.3015873015873014,87.53968253968253,-2.7777777777777777,51.19047619047619,-0.07936507936507936,93.25396825396825,-1.6666666666666665,-107.53968253968253,-85.31746031746032,-256.4285714285714,-20.238095238095237,-85.15873015873015,2.46031746031746,-1.1904761904761905,-321.8253968253968
58.17460317460317,-4.365079365079365,8.492063492063492,-34.84126984126984,14.682539682539682,44.84126984126984,93.09523809523809,-29.920634920634917,39.76190476190476,-2.46031746031746,-61.98412698412698,-4.2063492063492065,50.71428571428571,325.0,-25.79365079365079,-1.349206349206349,-129.6031746031746,-53.57142857142857,-243.88888888888889,159.28571428571428,185.3174603174603,-3.888888888888889,-1.349206349206349,-166.26984126984127
58.17460317460317,-4.365079365079365,8.492063492063492,-34.84126984126984,14.682539682539682,44.84126984126984,93.09523809523809,-29.920634920634917,39.76190476190476,-2.46031746031746,-61.98412698412698,-4.2063492063492065,50.71428571428571,325.0,-25.79365079365079,-1.349206349206349,-129.6031746031746,-53.57142857142857,-243.88888888888889,159.28571428571428,185.3174603174603,-3.888888888888889,-1.349206349206349,-166.26984126984127
70.55555555555556,1.0317460317460316,9.444444444444445,-124.68253968253967,16.11111111111111,53.73015873015873,-64.04761904761905,-18.49206349206349,40.238095238095234,-1.0317460317460316,38.01587301587301,-1.0317460317460316,51.98412698412698,-66.74603174603175,54.36507936507936,-0.23809523809523808,-245.79365079365078,-107.6984126984127,-273.0952380952381,-137.38095238095238,-190.3968253968254,4.2063492063492065,-0.07936507936507936,-166.26984126984127
70.55555555555556,1.0317460317460316,9.444444444444445,-124.68253968253967,16.11111111111111,53.73015873015873,-64.04761904761905,-18.49206349206349,40.238095238095234,-1.0317460317460316,38.01587301587301,-1.0317460317460316,51.98412698412698,-66.74603174603175,54.36507936507936,-0.23809523809523808,-245.79365079365078,-107.6984126984127,-273.0952380952381,-137.38095238095238,-190.3968253968254,4.2063492063492065,-0.07936507936507936,-166.26984126984127
-86.42857142857143,2.7777777777777777,11.349206349206348,-112.77777777777777,18.174603174603174,11.031746031746032,-110.39682539682539,-23.095238095238095,41.98412698412698,1.6666666666666665,-85.95238095238095,1.0317460317460316,53.57142857142857,50.39682539682539,-42.61904761904761,1.8253968253968254,-285.4761904761905,-89.92063492063491,-250.55555555555554,-124.36507936507935,-113.4126984126984,1.507936507936508,0.23809523809523808,-166.26984126984127
-86.42857142857143,2.7777777777777777,11.349206349206348,-112.77777777777777,18.174603174603174,11.031746031746032,-110.39682539682539,-23.095238095238095,41.98412698412698,1.6666666666666665,-85.95238095238095,1.0317460317460316,53.57142857142857,50.39682539682539,-42.61904761904761,1.8253968253968254,-285.4761904761905,-89.92063492063491,-250.55555555555554,-124.36507936507935,-113.4126984126984,1.507936507936508,0.23809523809523808,-166.26984126984127
-243.4126984126984,4.523809523809524,13.253968253968253,-100.71428571428571,20.396825396825395,-31.666666666666664,-156.58730158730157,-27.698412698412696,43.73015873015873,4.365079365079365,-209.9206349206349,3.095238095238095,55.15873015873016,167.53968253968253,-139.44444444444443,4.0476190476190474,-325.0,-71.98412698412697,-227.85714285714283,-111.34920634920634,-36.269841269841265,-1.0317460317460316,0.5555555555555556,-166.26984126984127
-243.4126984126984,4.523809523809524,13.253968253968253,-100.71428571428571,20.396825396825395,-31.666666666666664,-156.58730158730157,-27.698412698412696,43.73015873015873,4.365079365079365,-209.9206349206349,3.095238095238095,55.15873015873016,167.53968253968253,-139.44444444444443,4.0476190476190474,-325.0,-71.98412698412697,-227.85714285714283,-111.34920634920634,-36.269841269841265,-1.0317460317460316,0.5555555555555556,-166.26984126984127
325.0,-2.3015873015873014,6.904761904761904,35.476190476190474,10.238095238095237,146.74603174603175,317.22222222222223,6.587301587301587,26.746031746031743,-0.3968253968253968,146.42857142857142,-1.1904761904761905,35.317460317460316,325.0,161.19047619047618,-0.873015873015873,325.0,29.76190476190476,-168.65079365079364,236.26984126984127,92.61904761904762,-2.46031746031746,0.07936507936507936,-166.26984126984127
325.0,-2.3015873015873014,6.904761904761904,35.476190476190474,10.238095238095237,146.74603174603175,317.22222222222223,6.587301587301587,26.746031746031743,-0.3968253968253968,146.42857142857142,-1.1904761904761905,35.317460317460316,325.0,161.19047619047618,-0.873015873015873,325.0,29.76190476190476,-168.65079365079364,236.26984126984127,92.61904761904762,-2.46031746031746,0.07936507936507936,-166.26984126984127
236.1111111111111,11.349206349206348,15.793650793650793,-65.47619047619047,19.444444444444443,124.68253968253967,188.4920634920635,15.476190476190474,35.79365079365079,8.968253968253968,211.66666666666666,10.238095238095237,44.68253968253968,2.7777777777777777,215.47619047619045,8.968253968253968,311.66666666666663,-17.22222222222222,-178.33333333333331,8.174603174603174,-195.47619047619045,2.7777777777777777,-0.5555555555555556,-321.8253968253968
236.1111111111111,11.349206349206348,15.793650793650793,-65.47619047619047,19.444444444444443,124.68253968253967,188.4920634920635,15.476190476190474,35.79365079365079,8.968253968253968,211.66666666666666,10.238095238095237,44.68253968253968,2.7777777777777777,215.47619047619045,8.968253968253968,311.66666666666663,-17.22222222222222,-178.33333333333331,8.174603174603174,-195.47619047619045,2.7777777777777777,-0.5555555555555556,-321.8253968253968
127.22222222222221,7.857142857142857,15.634920634920634,-5.7936507936507935,18.65079365079365,123.88888888888889,213.09523809523807,9.285714285714285,35.317460317460316,8.492063492063492,78.96825396825396,8.809523809523808,44.047619047619044,325.0,106.58730158730158,8.492063492063492,239.9206349206349,29.6031746031746,-85.63492063492063,135.3174603174603,10.714285714285714,-2.9365079365079363,-1.0317460317460316,-321.8253968253968
127.22222222222221,7.857142857142857,15.634920634920634,-5.7936507936507935,18.65079365079365,123.88888888888889,213.09523809523807,9.285714285714285,35.317460317460316,8.492063492063492,78.96825396825396,8.809523809523808,44.047619047619044,325.0,106.58730158730158,8.492063492063492,239.9206349206349,29.6031746031746,-85.63492063492063,135.3174603174603,10.714285714285714,-2.9365079365079363,-1.0317460317460316,-321.8253968253968
145.47619047619048,9.920634920634921,12.936507936507935,-88.96825396825396,17.38095238095238,143.4126984126984,95.31746031746032,26.587301587301585,32.61904761904762,6.587301587301587,160.87301587301587,8.015873015873016,41.666666666666664,-79.92063492063491,167.85714285714286,5.634920634920634,244.68253968253967,-8.65079365079365,-101.34920634920634,-96.42857142857142,-270.7142857142857,2.46031746031746,-0.3968253968253968,-321.8253968253968
145.47619047619048,9.920634920634921,12.936507936507935,-88.96825396825396,17.38095238095238,143.4126984126984,95.31746031746032,26.587301587301585,32.61904761904762,6.587301587301587,160.87301587301587,8.015873015873016,41.666666666666664,-79.92063492063491,167.85714285714286,5.634920634920634,244.68253968253967,-8.65079365079365,-101.34920634920634,-96.42857142857142,-270.7142857142857,2.46031746031746,-0.3968253968253968,-321.8253968253968
205.63492063492063,-0.07936507936507936,8.65079365079365,31.349206349206348,11.984126984126984,108.49206349206348,325.0,18.80952380952381,27.698412698412696,1.349206349206349,148.33333333333331,1.0317460317460316,36.11111111111111,325.0,161.984126984127,1.0317460317460316,325.0,38.01587301587301,-10.238095238095237,244.36507936507934,83.25396825396825,-2.3015873015873014,-0.5555555555555556,-321.8253968253968
205.63492063492063,-0.07936507936507936,8.65079365079365,31.349206349206348,11.984126984126984,108.49206349206348,325.0,18.80952380952381,27.698412698412696,1.349206349206349,148.33333333333331,1.0317460317460316,36.11111111111111,325.0,161.984126984127,1.0317460317460316,325.0,38.01587301587301,-10.238095238095237,244.36507936507934,83.25396825396825,-2.3015873015873014,-0.5555555555555556,-321.8253968253968
191.5079365079365,4.523809523809524,10.555555555555555,-19.76190476190476,14.047619047619047,0.07936507936507936,248.8095238095238,10.238095238095237,27.38095238095238,4.2063492063492065,221.5079365079365,-161.984126984127,34.682539682539684,182.14285714285714,209.9206349206349,4.2063492063492065,325.0,-34.047619047619044,-1.349206349206349,127.22222222222221,-61.98412698412698,-0.07936507936507936,-1.349206349206349,-321.8253968253968
191.5079365079365,4.523809523809524,10.555555555555555,-19.76190476190476,14.047619047619047,0.07936507936507936,248.8095238095238,10.238095238095237,27.38095238095238,4.2063492063492065,221.5079365079365,-161.984126984127,34.682539682539684,182.14285714285714,209.9206349206349,4.2063492063492065,325.0,-34.047619047619044,-1.349206349206349,127.22222222222221,-61.98412698412698,-0.07936507936507936,-1.349206349206349,-321.8253968253968
177.53968253968253,9.285714285714285,12.46031746031746,-70.71428571428571,16.26984126984127,-108.33333333333333,172.77777777777777,1.6666666666666665,27.22222222222222,7.063492063492063,294.8412698412698,-325.0,33.41269841269841,39.285714285714285,257.85714285714283,7.5396825396825395,325.0,-106.1111111111111,7.698412698412698,10.238095238095237,-207.06349206349205,2.3015873015873014,-1.984126984126984,-166.26984126984127
177.53968253968253,9.285714285714285,12.46031746031746,-70.71428571428571,16.26984126984127,-108.33333333333333,172.77777777777777,1.6666666666666665,27.22222222222222,7.063492063492063,294.8412698412698,-325.0,33.41269841269841,39.285714285714285,257.85714285714283,7.5396825396825395,325.0,-106.1111111111111,7.698412698412698,10.238095238095237,-207.06349206349205,2.3015873015873014,-1.984126984126984,-166.26984126984127
177.53968253968253,9.285714285714285,12.46031746031746,-70.71428571428571,16.26984126984127,-108.33333333333333,172.77777777777777,1.6666666666666665,27.22222222222222,7.063492063492063,294.8412698412698,-325.0,33.41269841269841,39.285714285714285,257.85714285714283,7.5396825396825395,325.0,-106.1111111111111,7.698412698412698,10.238095238095237,-207.06349206349205,2.3015873015873014,-1.984126984126984,-166.26984126984127
177.53968253968253,9.285714285714285,12.46031746031746,-70.71428571428571,16.26984126984127,-108.33333333333333,172.77777777777777,1.6666666666666665,27.22222222222222,7.063492063492063,294.8412698412698,-325.0,33.41269841269841,39.285714285714285,257.85714285714283,7.5396825396825395,325.0,-106.1111111111111,7.698412698412698,10.238095238095237,-207.06349206349205,2.3015873015873014,-1.984126984126984,-166.26984126984127
177.53968253968253,9.285714285714285,12.46031746031746,-70.71428571428571,16.26984126984127,-108.33333333333333,172.77777777777777,1.6666666666666665,27.22222222222222,7.063492063492063,294.8412698412698,-325.0,33.41269841269841,39.285714285714285,257.85714285714283,7.5396825396825395,325.0,-106.1111111111111,7.698412698412698,10.238095238095237,-207.06349206349205,2.3015873015873014,-1.984126984126984,-166.26984126984127
177.53968253968253,9.285714285714285,12.46031746031746,-70.71428571428571,16.26984126984127,-108.33333333333333,172.77777777777777,1.6666666666666665,27.22222222222222,7.063492063492063,294.8412698412698,-325.0,33.41269841269841,39.285714285714285,257.85714285714283,7.5396825396825395,325.0,-106.1111111111111,7.698412698412698,10.238095238095237,-207.06349206349205,2.3015873015873014,-1.984126984126984,-166.26984126984127
234.84126984126982,7.3809523809523805,13.73015873015873,-1.349206349206349,15.95238095238095,188.015873015873,228.015873015873,22.777777777777775,26.26984126984127,7.5396825396825395,214.84126984126982,-308.17460317460313,32.14285714285714,207.69841269841268,194.84126984126982,7.698412698412698,325.0,-44.84126984126984,-1.0317460317460316,112.93650793650794,-29.126984126984127,0.5555555555555556,-1.349206349206349,-166.26984126984127
234.84126984126982,7.3809523809523805,13.73015873015873,-1.349206349206349,15.95238095238095,188.015873015873,228.015873015873,22.777777777777775,26.26984126984127,7.5396825396825395,214.84126984126982,-308.17460317460313,32.14285714285714,207.69841269841268,194.84126984126982,7.698412698412698,325.0,-44.84126984126984,-1.0317460317460316,112.93650793650794,-29.126984126984127,0.5555555555555556,-1.349206349206349,-166.26984126984127
142.3015873015873,1.6666666666666665,6.746031746031746,-33.41269841269841,9.285714285714285,169.76190476190476,104.2063492063492,11.031746031746032,19.76190476190476,1.1904761904761905,128.8095238095238,-304.2063492063492,25.476190476190474,145.0,118.96825396825396,0.873015873015873,276.74603174603175,-55.317460317460316,-25.0,10.396825396825395,-83.57142857142857,0.23809523809523808,-0.7142857142857142,-166.26984126984127
142.3015873015873,1.6666666666666665,6.746031746031746,-33.41269841269841,9.285714285714285,169.76190476190476,104.2063492063492,11.031746031746032,19.76190476190476,1.1904761904761905,128.8095238095238,-304.2063492063492,25.476190476190474,145.0,118.96825396825396,0.873015873015873,276.74603174603175,-55.317460317460316,-25.0,10.396825396825395,-83.57142857142857,0.23809523809523808,-0.7142857142857142,-166.26984126984127
240.55555555555554,-6.428571428571428,0.07936507936507936,-10.396825396825395,1.984126984126984,163.88888888888889,200.3968253968254,4.0476190476190474,12.46031746031746,-5.7936507936507935,193.09523809523807,-297.38095238095235,18.174603174603174,217.06349206349205,173.4126984126984,-5.7936507936507935,325.0,-65.95238095238095,-16.428571428571427,102.46031746031746,-11.984126984126984,-0.23809523809523808,-1.349206349206349,-321.8253968253968
240.55555555555554,-6.428571428571428,0.07936507936507936,-10.396825396825395,1.984126984126984,163.88888888888889,200.3968253968254,4.0476190476190474,12.46031746031746,-5.7936507936507935,193.09523809523807,-297.38095238095235,18.174603174603174,217.06349206349205,173.4126984126984,-5.7936507936507935,325.0,-65.95238095238095,-16.428571428571427,102.46031746031746,-11.984126984126984,-0.23809523809523808,-1.349206349206349,-321.8253968253968
19.76190476190476,-4.365079365079365,1.349206349206349,-43.095238095238095,3.73015873015873,158.33333333333331,-19.126984126984127,-16.11111111111111,13.73015873015873,-3.4126984126984126,-30.07936507936508,-293.88888888888886,20.873015873015873,325.0,-22.3015873015873,-4.0476190476190474,84.36507936507937,-51.82539682539682,-54.68253968253968,-13.412698412698411,-6.746031746031746,-2.46031746031746,0.5555555555555556,-321.8253968253968
19.76190476190476,-4.365079365079365,1.349206349206349,-43.095238095238095,3.73015873015873,158.33333333333331,-19.126984126984127,-16.11111111111111,13.73015873015873,-3.4126984126984126,-30.07936507936508,-293.88888888888886,20.873015873015873,325.0,-22.3015873015873,-4.0476190476190474,84.36507936507937,-51.82539682539682,-54.68253968253968,-13.412698412698411,-6.746031746031746,-2.46031746031746,0.5555555555555556,-321.8253968253968
113.73015873015872,-6.26984126984127,0.7142857142857142,-4.2063492063492065,2.619047619047619,164.84126984126982,90.39682539682539,-9.285714285714285,12.936507936507935,-4.682539682539682,50.079365079365076,-290.07936507936506,19.285714285714285,325.0,38.33333333333333,-4.682539682539682,180.55555555555554,-42.93650793650794,-9.603174603174603,83.4126984126984,58.8095238095238,-2.46031746031746,0.07936507936507936,-321.8253968253968
113.73015873015872,-6.26984126984127,0.7142857142857142,-4.2063492063492065,2.619047619047619,164.84126984126982,90.39682539682539,-9.285714285714285,12.936507936507935,-4.682539682539682,50.079365079365076,-290.07936507936506,19.285714285714285,325.0,38.33333333333333,-4.682539682539682,180.55555555555554,-42.93650793650794,-9.603174603174603,83.4126984126984,58.8095238095238,-2.46031746031746,0.07936507936507936,-321.8253968253968
86.58730158730158,-1.1904761904761905,2.9365079365079363,-61.03174603174603,5.158730158730158,175.47619047619045,-39.12698412698413,2.142857142857143,15.317460317460316,-2.142857142857143,61.34920634920635,-282.46031746031747,21.825396825396822,123.25396825396825,31.98412698412698,-2.46031746031746,127.06349206349206,-58.8095238095238,-49.44444444444444,-90.87301587301587,-125.63492063492063,0.3968253968253968,0.23809523809523808,-321.8253968253968
86.58730158730158,-1.1904761904761905,2.9365079365079363,-61.03174603174603,5.158730158730158,175.47619047619045,-39.12698412698413,2.142857142857143,15.317460317460316,-2.142857142857143,61.34920634920635,-282.46031746031747,21.825396825396822,123.25396825396825,31.98412698412698,-2.46031746031746,127.06349206349206,-58.8095238095238,-49.44444444444444,-90.87301587301587,-125.63492063492063,0.3968253968253968,0.23809523809523808,-321.8253968253968
195.63492063492063,-5.476190476190476,-0.07936507936507936,-16.746031746031743,1.6666666666666665,193.4126984126984,68.4920634920635,14.047619047619047,12.142857142857142,-5.476190476190476,131.66666666666666,-278.8095238095238,18.333333333333332,123.25396825396825,89.44444444444444,-5.158730158730158,248.49206349206347,-46.58730158730158,11.349206349206348,-1.984126984126984,-47.698412698412696,-0.23809523809523808,-0.07936507936507936,-321.8253968253968
195.63492063492063,-5.476190476190476,-0.07936507936507936,-16.746031746031743,1.6666666666666665,193.4126984126984,68.4920634920635,14.047619047619047,12.142857142857142,-5.476190476190476,131.66666666666666,-278.8095238095238,18.333333333333332,123.25396825396825,89.44444444444444,-5.158730158730158,248.49206349206347,-46.58730158730158,11.349206349206348,-1.984126984126984,-47.698412698412696,-0.23809523809523808,-0.07936507936507936,-321.8253968253968
173.4126984126984,-5.7936507936507935,-0.5555555555555556,-8.174603174603174,1.349206349206349,198.015873015873,61.666666666666664,14.84126984126984,11.666666666666666,-5.476190476190476,124.04761904761904,-273.88888888888886,18.015873015873016,123.25396825396825,79.6031746031746,-5.317460317460317,325.0,-43.25396825396825,40.079365079365076,-7.698412698412698,-42.77777777777778,-0.07936507936507936,0.07936507936507936,-166.26984126984127
173.4126984126984,-5.7936507936507935,-0.5555555555555556,-8.174603174603174,1.349206349206349,198.015873015873,61.666666666666664,14.84126984126984,11.666666666666666,-5.476190476190476,124.04761904761904,-273.88888888888886,18.015873015873016,123.25396825396825,79.6031746031746,-5.317460317460317,325.0,-43.25396825396825,40.079365079365076,-7.698412698412698,-42.77777777777778,-0.07936507936507936,0.07936507936507936,-166.26984126984127
271.8253968253968,-6.428571428571428,-1.8253968253968254,-3.888888888888889,0.7142857142857142,191.66666666666666,158.96825396825395,14.206349206349206,10.396825396825395,-7.222222222222221,249.28571428571428,-268.968253968254,15.634920634920634,147.2222222222222,184.52380952380952,-7.222222222222221,325.0,-64.68253968253968,64.84126984126983,38.01587301587301,-77.85714285714285,2.3015873015873014,-1.6666666666666665,-166.26984126984127
271.8253968253968,-6.428571428571428,-1.8253968253968254,-3.888888888888889,0.7142857142857142,191.66666666666666,158.96825396825395,14.206349206349206,10.396825396825395,-7.222222222222221,249.28571428571428,-268.968253968254,15.634920634920634,147.2222222222222,184.52380952380952,-7.222222222222221,325.0,-64.68253968253968,64.84126984126983,38.01587301587301,-77.85714285714285,2.3015873015873014,-1.6666666666666665,-166.26984126984127
-7.3809523809523805,-1.507936507936508,2.3015873015873014,-56.269841269841265,4.523809523809524,87.53968253968253,-83.25396825396825,1.6666666666666665,14.523809523809524,-2.142857142857143,21.666666666666664,-263.4126984126984,20.873015873015873,110.39682539682539,-4.0476190476190474,-2.46031746031746,303.57142857142856,-50.87301587301587,-11.19047619047619,-114.68253968253967,-110.87301587301587,1.0317460317460316,0.23809523809523808,-166.26984126984127
-7.3809523809523805,-1.507936507936508,2.3015873015873014,-56.269841269841265,4.523809523809524,87.53968253968253,-83.25396825396825,1.6666666666666665,14.523809523809524,-2.142857142857143,21.666666666666664,-263.4126984126984,20.873015873015873,110.39682539682539,-4.0476190476190474,-2.46031746031746,303.57142857142856,-50.87301587301587,-11.19047619047619,-114.68253968253967,-110.87301587301587,1.0317460317460316,0.23809523809523808,-166.26984126984127
153.57142857142856,-0.23809523809523808,6.428571428571428,27.38095238095238,8.015873015873016,84.04761904761904,124.04761904761904,11.507936507936508,18.174603174603174,0.873015873015873,131.03174603174602,-258.8095238095238,23.41269841269841,241.8253968253968,82.3015873015873,1.0317460317460316,325.0,-36.58730158730159,40.39682539682539,84.84126984126983,65.79365079365078,-1.349206349206349,-1.1904761904761905,-166.26984126984127
153.57142857142856,-0.23809523809523808,6.428571428571428,27.38095238095238,8.015873015873016,84.04761904761904,124.04761904761904,11.507936507936508,18.174603174603174,0.873015873015873,131.03174603174602,-258.8095238095238,23.41269841269841,241.8253968253968,82.3015873015873,1.0317460317460316,325.0,-36.58730158730159,40.39682539682539,84.84126984126983,65.79365079365078,-1.349206349206349,-1.1904761904761905,-166.26984126984127
-91.5079365079365,3.73015873015873,8.015873015873016,-21.03174603174603,10.238095238095237,52.460317460317455,-110.07936507936508,3.253968253968254,20.555555555555554,3.888888888888889,-80.39682539682539,-255.3174603174603,26.9047619047619,325.0,-88.65079365079364,3.253968253968254,101.34920634920634,-23.57142857142857,-15.158730158730158,-83.09523809523809,-7.063492063492063,-1.984126984126984,1.0317460317460316,-166.26984126984127
-91.5079365079365,3.73015873015873,8.015873015873016,-21.03174603174603,10.238095238095237,52.460317460317455,-110.07936507936508,3.253968253968254,20.555555555555554,3.888888888888889,-80.39682539682539,-255.3174603174603,26.9047619047619,325.0,-88.65079365079364,3.253968253968254,101.34920634920634,-23.57142857142857,-15.158730158730158,-83.09523809523809,-7.063492063492063,-1.984126984126984,1.0317460317460316,-166.26984126984127
-12.142857142857142,0.5555555555555556,3.73015873015873,-46.58730158730158,5.7936507936507935,74.68253968253968,-80.07936507936508,13.095238095238095,15.476190476190474,-0.7142857142857142,13.73015873015873,-245.63492063492063,21.507936507936506,99.12698412698413,-1.984126984126984,-1.349206349206349,88.17460317460316,-32.3015873015873,-54.36507936507936,-123.73015873015872,-113.4126984126984,1.1904761904761905,0.873015873015873,-321.8253968253968
-12.142857142857142,0.5555555555555556,3.73015873015873,-46.58730158730158,5.7936507936507935,74.68253968253968,-80.07936507936508,13.095238095238095,15.476190476190474,-0.7142857142857142,13.73015873015873,-245.63492063492063,21.507936507936506,99.12698412698413,-1.984126984126984,-1.349206349206349,88.17460317460316,-32.3015873015873,-54.36507936507936,-123.73015873015872,-113.4126984126984,1.1904761904761905,0.873015873015873,-321.8253968253968
114.84126984126983,-7.857142857142857,-3.095238095238095,-9.444444444444445,-1.1904761904761905,23.57142857142857,40.87301587301587,18.65079365079365,8.174603174603174,-7.3809523809523805,79.44444444444444,-229.9206349206349,13.571428571428571,104.68253968253968,60.39682539682539,-7.857142857142857,133.57142857142856,-22.3015873015873,-49.76190476190476,1.349206349206349,-32.93650793650794,0.07936507936507936,-0.7142857142857142,-321.8253968253968
114.84126984126983,-7.857142857142857,-3.095238095238095,-9.444444444444445,-1.1904761904761905,23.57142857142857,40.87301587301587,18.65079365079365,8.174603174603174,-7.3809523809523805,79.44444444444444,-229.9206349206349,13.571428571428571,104.68253968253968,60.39682539682539,-7.857142857142857,133.57142857142856,-22.3015873015873,-49.76190476190476,1.349206349206349,-32.93650793650794,0.07936507936507936,-0.7142857142857142,-321.8253968253968
256.74603174603175,-8.333333333333332,-2.3015873015873014,31.507936507936506,-1.507936507936508,46.904761904761905,178.4920634920635,28.809523809523807,8.333333333333332,-7.698412698412698,220.55555555555554,-225.63492063492063,13.253968253968253,208.96825396825395,168.8095238095238,-7.222222222222221,325.0,-35.317460317460316,-16.11111111111111,79.44444444444444,-11.19047619047619,-0.23809523809523808,-2.619047619047619,-321.8253968253968
256.74603174603175,-8.333333333333332,-2.3015873015873014,31.507936507936506,-1.507936507936508,46.904761904761905,178.4920634920635,28.809523809523807,8.333333333333332,-7.698412698412698,220.55555555555554,-225.63492063492063,13.253968253968253,208.96825396825395,168.8095238095238,-7.222222222222221,325.0,-35.317460317460316,-16.11111111111111,79.44444444444444,-11.19047619047619,-0.23809523809523808,-2.619047619047619,-321.8253968253968
256.74603174603175,-8.333333333333332,-2.3015873015873014,31.507936507936506,-1.507936507936508,46.904761904761905,178.4920634920635,28.809523809523807,8.333333333333332,-7.698412698412698,220.55555555555554,-225.63492063492063,13.253968253968253,208.96825396825395,168.8095238095238,-7.222222222222221,325.0,-35.317460317460316,-16.11111111111111,79.44444444444444,-11.19047619047619,-0.23809523809523808,-2.619047619047619,-321.8253968253968
256.74603174603175,-8.333333333333332,-2.3015873015873014,31.507936507936506,-1.507936507936508,46.904761904761905,178.4920634920635,28.809523809523807,8.333333333333332,-7.698412698412698,220.55555555555554,-225.63492063492063,13.253968253968253,208.96825396825395,168.8095238095238,-7.222222222222221,325.0,-35.317460317460316,-16.11111111111111,79.44444444444444,-11.19047619047619,-0.23809523809523808,-2.619047619047619,-321.8253968253968
256.74603174603175,-8.333333333333332,-2.3015873015873014,31.507936507936506,-1.507936507936508,46.904761904761905,178.4920634920635,28.809523809523807,8.333333333333332,-7.698412698412698,220.55555555555554,-225.63492063492063,13.253968253968253,208.96825396825395,168.8095238095238,-7.222222222222221,325.0,-35.317460317460316,-16.11111111111111,79.44444444444444,-11.19047619047619,-0.23809523809523808,-2.619047619047619,-321.8253968253968
256.74603174603175,-8.333333333333332,-2.3015873015873014,31.507936507936506,-1.507936507936508,46.904761904761905,178.4920634920635,28.809523809523807,8.333333333333332,-7.698412698412698,220.55555555555554,-225.63492063492063,13.253968253968253,208.96825396825395,168.8095238095238,-7.222222222222221,325.0,-35.317460317460316,-16.11111111111111,79.44444444444444,-11.19047619047619,-0.23809523809523808,-2.619047619047619,-321.8253968253968
256.74603174603175,-8.333333333333332,-2.3015873015873014,31.507936507936506,-1.507936507936508,46.904761904761905,178.4920634920635,28.809523809523807,8.333333333333332,-7.698412698412698,220.55555555555554,-225.63492063492063,13.253968253968253,208.96825396825395,168.8095238095238,-7.222222222222221,325.0,-35.317460317460316,-16.11111111111111,79.44444444444444,-11.19047619047619,-0.23809523809523808,-2.619047619047619,-166.26984126984127
256.74603174603175,-8.333333333333332,-2.3015873015873014,31.507936507936506,-1.507936507936508,46.904761904761905,178.4920634920635,28.809523809523807,8.333333333333332,-7.698412698412698,220.55555555555554,-225.63492063492063,13.253968253968253,208.96825396825395,168.8095238095238,-7.222222222222221,325.0,-35.317460317460316,-16.11111111111111,79.44444444444444,-11.19047619047619,-0.23809523809523808,-2.619047619047619,-166.26984126984127
5.476190476190476,0.23809523809523808,2.7777777777777777,-6.111111111111111,3.4126984126984126,-89.76190476190476,33.73015873015873,12.619047619047619,10.873015873015872,-0.5555555555555556,143.73015873015873,-134.36507936507937,14.523809523809524,-18.65079365079365,105.63492063492063,-0.3968253968253968,70.71428571428571,-50.238095238095234,-135.3174603174603,-33.095238095238095,-120.07936507936508,1.507936507936508,-0.873015873015873,-166.26984126984127
5.476190476190476,0.23809523809523808,2.7777777777777777,-6.111111111111111,3.4126984126984126,-89.76190476190476,33.73015873015873,12.619047619047619,10.873015873015872,-0.5555555555555556,143.73015873015873,-134.36507936507937,14.523809523809524,-18.65079365079365,105.63492063492063,-0.3968253968253968,70.71428571428571,-50.238095238095234,-135.3174603174603,-33.095238095238095,-120.07936507936508,1.507936507936508,-0.873015873015873,-166.26984126984127
-232.77777777777777,8.174603174603174,7.698412698412698,-31.19047619047619,8.015873015873016,-202.77777777777777,-103.09523809523809,8.333333333333332,12.936507936507935,5.952380952380952,65.63492063492063,-43.41269841269841,15.634920634920634,-271.3492063492063,52.93650793650794,6.111111111111111,-107.6984126984127,-48.96825396825397,-156.11111111111111,-154.84126984126982,-210.87301587301587,2.46031746031746,-0.7142857142857142,-166.26984126984127
-232.77777777777777,8.174603174603174,7.698412698412698,-31.19047619047619,8.015873015873016,-202.77777777777777,-103.09523809523809,8.333333333333332,12.936507936507935,5.952380952380952,65.63492063492063,-43.41269841269841,15.634920634920634,-271.3492063492063,52.93650793650794,6.111111111111111,-107.6984126984127,-48.96825396825397,-156.11111111111111,-154.84126984126982,-210.87301587301587,2.46031746031746,-0.7142857142857142,-166.26984126984127
-286.74603174603175,9.444444444444445,8.65079365079365,-41.03174603174603,8.968253968253968,-245.95238095238093,-115.0,8.968253968253968,13.412698412698411,6.587301587301587,55.95238095238095,-43.73015873015873,16.428571428571427,-275.95238095238096,42.3015873015873,6.904761904761904,-129.44444444444443,-49.285714285714285,-133.4126984126984,-159.9206349206349,-209.9206349206349,3.73015873015873,0.23809523809523808,-166.26984126984127
-286.74603174603175,9.444444444444445,8.65079365079365,-41.03174603174603,8.968253968253968,-245.95238095238093,-115.0,8.968253968253968,13.412698412698411,6.587301587301587,55.95238095238095,-43.73015873015873,16.428571428571427,-275.95238095238096,42.3015873015873,6.904761904761904,-129.44444444444443,-49.285714285714285,-133.4126984126984,-159.9206349206349,-209.9206349206349,3.73015873015873,0.23809523809523808,-166.26984126984127
-286.74603174603175,9.444444444444445,8.65079365079365,-41.03174603174603,8.968253968253968,-245.95238095238093,-115.0,8.968253968253968,13.412698412698411,6.587301587301587,55.95238095238095,-43.73015873015873,16.428571428571427,-275.95238095238096,42.3015873015873,6.904761904761904,-129.44444444444443,-49.285714285714285,-133.4126984126984,-159.9206349206349,-209.9206349206349,3.73015873015873,0.23809523809523808,-166.26984126984127
-286.74603174603175,9.444444444444445,8.65079365079365,-41.03174603174603,8.968253968253968,-245.95238095238093,-115.0,8.968253968253968,13.412698412698411,6.587301587301587,55.95238095238095,-43.73015873015873,16.428571428571427,-275.95238095238096,42.3015873015873,6.904761904761904,-129.44444444444443,-49.285714285714285,-133.4126984126984,-159.9206349206349,-209.9206349206349,3.73015873015873,0.23809523809523808,-166.26984126984127
-286.74603174603175,9.444444444444445,8.65079365079365,-41.03174603174603,8.968253968253968,-245.95238095238093,-115.0,8.968253968253968,13.412698412698411,6.587301587301587,55.95238095238095,-43.73015873015873,16.428571428571427,-275.95238095238096,42.3015873015873,6.904761904761904,-129.44444444444443,-49.285714285714285,-133.4126984126984,-159.9206349206349,-209.9206349206349,3.73015873015873,0.23809523809523808,-321.8253968253968
-286.74603174603175,9.444444444444445,8.65079365079365,-41.03174603174603,8.968253968253968,-245.95238095238093,-115.0,8.968253968253968,13.412698412698411,6.587301587301587,55.95238095238095,-43.73015873015873,16.428571428571427,-275.95238095238096,42.3015873015873,6.904761904761904,-129.44444444444443,-49.285714285714285,-133.4126984126984,-159.9206349206349,-209.9206349206349,3.73015873015873,0.23809523809523808,-321.8253968253968
-286.74603174603175,9.444444444444445,8.65079365079365,-41.03174603174603,8.968253968253968,-245.95238095238093,-115.0,8.968253968253968,13.412698412698411,6.587301587301587,55.95238095238095,-43.73015873015873,16.428571428571427,-275.95238095238096,42.3015873015873,6.904761904761904,-129.44444444444443,-49.285714285714285,-133.4126984126984,-159.9206349206349,-209.9206349206349,3.73015873015873,0.23809523809523808,-321.8253968253968
-286.74603174603175,9.444444444444445,8.65079365079365,-41.03174603174603,8.968253968253968,-245.95238095238093,-115.0,8.968253968253968,13.412698412698411,6.587301587301587,55.95238095238095,-43.73015873015873,16.428571428571427,-275.95238095238096,42.3015873015873,6.904761904761904,-129.44444444444443,-49.285714285714285,-133.4126984126984,-159.9206349206349,-209.9206349206349,3.73015873015873,0.23809523809523808,-321.8253968253968
-286.74603174603175,9.444444444444445,8.65079365079365,-41.03174603174603,8.968253968253968,-245.95238095238093,-115.0,8.968253968253968,13.412698412698411,6.587301587301587,55.95238095238095,-43.73015873015873,16.428571428571427,-275.95238095238096,42.3015873015873,6.904761904761904,-129.44444444444443,-49.285714285714285,-133.4126984126984,-159.9206349206349,-209.9206349206349,3.73015873015873,0.23809523809523808,-321.8253968253968
-286.74603174603175,9.444444444444445,8.65079365079365,-41.03174603174603,8.968253968253968,-245.95238095238093,-115.0,8.968253968253968,13.412698412698411,6.587301587301587,55.95238095238095,-43.73015873015873,16.428571428571427,-275.95238095238096,42.3015873015873,6.904761904761904,-129.44444444444443,-49.285714285714285,-133.4126984126984,-159.9206349206349,-209.9206349206349,3.73015873015873,0.23809523809523808,-321.8253968253968
30.71428571428571,-10.238095238095237,-5.952380952380952,24.84126984126984,-6.746031746031746,110.39682539682539,158.96825396825395,-2.3015873015873014,-3.253968253968254,-7.063492063492063,67.85714285714285,325.0,-2.619047619047619,203.4126984126984,59.12698412698413,-6.428571428571428,195.63492063492063,7.698412698412698,-92.30158730158729,193.09523809523807,148.17460317460316,-5.0,-1.507936507936508,-321.8253968253968
30.71428571428571,-10.238095238095237,-5.952380952380952,24.84126984126984,-6.746031746031746,110.39682539682539,158.96825396825395,-2.3015873015873014,-3.253968253968254,-7.063492063492063,67.85714285714285,325.0,-2.619047619047619,203.4126984126984,59.12698412698413,-6.428571428571428,195.63492063492063,7.698412698412698,-92.30158730158729,193.09523809523807,148.17460317460316,-5.0,-1.507936507936508,-321.8253968253968
-49.285714285714285,5.476190476190476,4.523809523809524,-67.53968253968253,4.0476190476190474,98.01587301587301,-21.19047619047619,0.3968253968253968,6.746031746031746,3.888888888888889,96.58730158730158,109.28571428571428,8.65079365079365,-241.5079365079365,81.34920634920634,3.888888888888889,79.12698412698413,-38.96825396825397,-131.984126984127,-76.26984126984127,-152.46031746031744,2.7777777777777777,-1.1904761904761905,-321.8253968253968
-49.285714285714285,5.476190476190476,4.523809523809524,-67.53968253968253,4.0476190476190474,98.01587301587301,-21.19047619047619,0.3968253968253968,6.746031746031746,3.888888888888889,96.58730158730158,109.28571428571428,8.65079365079365,-241.5079365079365,81.34920634920634,3.888888888888889,79.12698412698413,-38.96825396825397,-131.984126984127,-76.26984126984127,-152.46031746031744,2.7777777777777777,-1.1904761904761905,-321.8253968253968
-114.84126984126983,-5.7936507936507935,-2.46031746031746,13.412698412698411,-3.095238095238095,88.96825396825396,35.95238095238095,-17.857142857142858,0.3968253968253968,-3.253968253968254,-17.22222222222222,325.0,1.1904761904761905,213.09523809523807,-23.41269841269841,-2.9365079365079363,60.39682539682539,-2.619047619047619,-27.38095238095238,96.1111111111111,103.4126984126984,-2.7777777777777777,0.3968253968253968,-166.26984126984127
-114.84126984126983,-5.7936507936507935,-2.46031746031746,13.412698412698411,-3.095238095238095,88.96825396825396,35.95238095238095,-17.857142857142858,0.3968253968253968,-3.253968253968254,-17.22222222222222,325.0,1.1904761904761905,213.09523809523807,-23.41269841269841,-2.9365079365079363,60.39682539682539,-2.619047619047619,-27.38095238095238,96.1111111111111,103.4126984126984,-2.7777777777777777,0.3968253968253968,-166.26984126984127
-158.17460317460316,7.3809523809523805,4.682539682539682,-77.06349206349206,5.0,133.57142857142856,-129.12698412698413,0.5555555555555556,7.698412698412698,5.158730158730158,27.698412698412696,-59.12698412698413,9.761904761904761,-309.9206349206349,15.476190476190474,4.523809523809524,-125.63492063492063,-32.3015873015873,-49.12698412698413,-168.17460317460316,-199.76190476190476,2.46031746031746,0.873015873015873,-166.26984126984127
-158.17460317460316,7.3809523809523805,4.682539682539682,-77.06349206349206,5.0,133.57142857142856,-129.12698412698413,0.5555555555555556,7.698412698412698,5.158730158730158,27.698412698412696,-59.12698412698413,9.761904761904761,-309.9206349206349,15.476190476190474,4.523809523809524,-125.63492063492063,-32.3015873015873,-49.12698412698413,-168.17460317460316,-199.76190476190476,2.46031746031746,0.873015873015873,-166.26984126984127
-187.06349206349205,4.682539682539682,4.2063492063492065,-47.857142857142854,4.0476190476190474,130.55555555555554,-89.44444444444444,2.9365079365079363,7.3809523809523805,4.523809523809524,-29.126984126984127,121.5079365079365,9.285714285714285,-50.238095238095234,-21.03174603174603,4.365079365079365,-162.3015873015873,-5.317460317460317,-45.63492063492063,-78.96825396825396,-81.98412698412697,0.5555555555555556,1.507936507936508,-166.26984126984127
-187.06349206349205,4.682539682539682,4.2063492063492065,-47.857142857142854,4.0476190476190474,130.55555555555554,-89.44444444444444,2.9365079365079363,7.3809523809523805,4.523809523809524,-29.126984126984127,121.5079365079365,9.285714285714285,-50.238095238095234,-21.03174603174603,4.365079365079365,-162.3015873015873,-5.317460317460317,-45.63492063492063,-78.96825396825396,-81.98412698412697,0.5555555555555556,1.507936507936508,-166.26984126984127
-219.60317460317458,3.095238095238095,4.682539682539682,-29.76190476190476,4.2063492063492065,85.0,-68.80952380952381,-9.285714285714285,7.857142857142857,5.0,-97.85714285714285,290.07936507936506,9.920634920634921,200.87301587301587,-71.19047619047619,5.158730158730158,-179.60317460317458,4.682539682539682,-58.49206349206349,7.698412698412698,31.349206349206348,-1.0317460317460316,2.7777777777777777,-166.26984126984127
-219.60317460317458,3.095238095238095,4.682539682539682,-29.76190476190476,4.2063492063492065,85.0,-68.80952380952381,-9.285714285714285,7.857142857142857,5.0,-97.85714285714285,290.07936507936506,9.920634920634921,200.87301587301587,-71.19047619047619,5.158730158730158,-179.60317460317458,4.682539682539682,-58.49206349206349,7.698412698412698,31.349206349206348,-1.0317460317460316,2.7777777777777777,-166.26984126984127
46.42857142857142,68.01587301587301,-21.19047619047619,130.3968253968254,17.38095238095238,-97.85714285714285,-41.19047619047619,-11.507936507936508,-11.349206349206348,-13.888888888888888,20.71428571428571,302.3015873015873,0.5555555555555556,-100.87301587301587,-15.95238095238095,-3.571428571428571,145.79365079365078,-30.07936507936508,8.333333333333332,64.68253968253968,-46.269841269841265,-1.0317460317460316,159.44444444444443,-166.26984126984127
46.42857142857142,68.01587301587301,-21.19047619047619,130.3968253968254,17.38095238095238,-97.85714285714285,-41.19047619047619,-11.507936507936508,-11.349206349206348,-13.888888888888888,20.71428571428571,302.3015873015873,0.5555555555555556,-100.87301587301587,-15.95238095238095,-3.571428571428571,145.79365079365078,-30.07936507936508,8.333333333333332,64.68253968253968,-46.269841269841265,-1.0317460317460316,159.44444444444443,-166.26984126984127
-41.98412698412698,139.76190476190476,-39.285714285714285,288.015873015873,37.698412698412696,-260.39682539682536,-203.7301587301587,-21.666666666666664,-21.507936507936506,-24.047619047619047,-141.8253968253968,312.46031746031747,0.5555555555555556,-90.71428571428571,-188.65079365079364,-3.571428571428571,145.79365079365078,-19.92063492063492,8.333333333333332,54.52380952380952,-46.269841269841265,-1.0317460317460316,321.984126984127,-321.8253968253968
-41.98412698412698,139.76190476190476,-39.285714285714285,288.015873015873,37.698412698412696,-260.39682539682536,-203.7301587301587,-21.666666666666664,-21.507936507936506,-24.047619047619047,-141.8253968253968,312.46031746031747,0.5555555555555556,-90.71428571428571,-188.65079365079364,-3.571428571428571,145.79365079365078,-19.92063492063492,8.333333333333332,54.52380952380952,-46.269841269841265,-1.0317460317460316,321.984126984127,-321.8253968253968
82.46031746031746,0.07936507936507936,2.619047619047619,80.07936507936508,2.619047619047619,91.66666666666666,60.55555555555555,14.206349206349206,5.158730158730158,2.7777777777777777,2.7777777777777777,249.9206349206349,5.7936507936507935,225.95238095238093,-22.3015873015873,3.253968253968254,2.46031746031746,29.6031746031746,140.55555555555554,103.4126984126984,141.03174603174602,-1.8253968253968254,-1.349206349206349,-321.8253968253968
82.46031746031746,0.07936507936507936,2.619047619047619,80.07936507936508,2.619047619047619,91.66666666666666,60.55555555555555,14.206349206349206,5.158730158730158,2.7777777777777777,2.7777777777777777,249.9206349206349,5.7936507936507935,225.95238095238093,-22.3015873015873,3.253968253968254,2.46031746031746,29.6031746031746,140.55555555555554,103.4126984126984,141.03174603174602,-1.8253968253968254,-1.349206349206349,-321.8253968253968
56.269841269841265,8.809523809523808,7.5396825396825395,-0.07936507936507936,7.222222222222221,102.14285714285714,-46.42857142857142,18.80952380952381,8.809523809523808,7.063492063492063,75.79365079365078,-89.76190476190476,10.396825396825395,-254.36507936507934,40.55555555555555,7.222222222222221,-60.55555555555555,-16.11111111111111,78.65079365079364,-108.49206349206348,-131.66666666666666,1.984126984126984,-1.0317460317460316,-321.8253968253968
56.269841269841265,8.809523809523808,7.5396825396825395,-0.07936507936507936,7.222222222222221,102.14285714285714,-46.42857142857142,18.80952380952381,8.809523809523808,7.063492063492063,75.79365079365078,-89.76190476190476,10.396825396825395,-254.36507936507934,40.55555555555555,7.222222222222221,-60.55555555555555,-16.11111111111111,78.65079365079364,-108.49206349206348,-131.66666666666666,1.984126984126984,-1.0317460317460316,-321.8253968253968
-30.87301587301587,-3.4126984126984126,-1.0317460317460316,65.95238095238095,-0.873015873015873,95.63492063492063,44.2063492063492,1.0317460317460316,1.507936507936508,-0.7142857142857142,-27.539682539682538,228.015873015873,2.3015873015873014,225.79365079365078,-43.25396825396825,-0.23809523809523808,-59.12698412698413,13.412698412698411,114.36507936507935,90.07936507936508,133.88888888888889,-2.3015873015873014,-0.3968253968253968,-321.8253968253968
-30.87301587301587,-3.4126984126984126,-1.0317460317460316,65.95238095238095,-0.873015873015873,95.63492063492063,44.2063492063492,1.0317460317460316,1.507936507936508,-0.7142857142857142,-27.539682539682538,228.015873015873,2.3015873015873014,225.79365079365078,-43.25396825396825,-0.23809523809523808,-59.12698412698413,13.412698412698411,114.36507936507935,90.07936507936508,133.88888888888889,-2.3015873015873014,-0.3968253968253968,-321.8253968253968
-48.33333333333333,0.7142857142857142,1.1904761904761905,27.38095238095238,1.349206349206349,103.73015873015872,-5.317460317460317,11.19047619047619,2.9365079365079363,1.349206349206349,5.634920634920634,26.11111111111111,4.523809523809524,-36.58730158730159,-11.507936507936508,1.349206349206349,-156.26984126984127,-5.0,75.31746031746032,-5.317460317460317,2.7777777777777777,-0.23809523809523808,-1.349206349206349,-321.8253968253968
-48.33333333333333,0.7142857142857142,1.1904761904761905,27.38095238095238,1.349206349206349,103.73015873015872,-5.317460317460317,11.19047619047619,2.9365079365079363,1.349206349206349,5.634920634920634,26.11111111111111,4.523809523809524,-36.58730158730159,-11.507936507936508,1.349206349206349,-156.26984126984127,-5.0,75.31746031746032,-5.317460317460317,2.7777777777777777,-0.23809523809523808,-1.349206349206349,-321.8253968253968
-194.52380952380952,-1.1904761904761905,0.5555555555555556,26.11111111111111,0.23809523809523808,89.76190476190476,-75.95238095238095,-10.079365079365079,2.9365079365079363,0.7142857142857142,-144.2063492063492,97.22222222222221,4.2063492063492065,236.42857142857142,-129.6031746031746,0.7142857142857142,-277.06349206349205,8.968253968253968,40.079365079365076,-2.142857142857143,87.85714285714285,0.23809523809523808,1.8253968253968254,-166.26984126984127
-194.52380952380952,-1.1904761904761905,0.5555555555555556,26.11111111111111,0.23809523809523808,89.76190476190476,-75.95238095238095,-10.079365079365079,2.9365079365079363,0.7142857142857142,-144.2063492063492,97.22222222222221,4.2063492063492065,236.42857142857142,-129.6031746031746,0.7142857142857142,-277.06349206349205,8.968253968253968,40.079365079365076,-2.142857142857143,87.85714285714285,0.23809523809523808,1.8253968253968254,-166.26984126984127
-115.0,-7.857142857142857,-5.476190476190476,50.238095238095234,-5.634920634920634,91.19047619047619,27.857142857142854,-5.952380952380952,-3.253968253968254,-5.476190476190476,-67.53968253968253,211.03174603174602,-2.3015873015873014,224.84126984126982,-61.507936507936506,-5.158730158730158,-125.0,9.444444444444445,52.14285714285714,78.33333333333333,133.88888888888889,-1.984126984126984,-0.5555555555555556,-166.26984126984127
-115.0,-7.857142857142857,-5.476190476190476,50.238095238095234,-5.634920634920634,91.19047619047619,27.857142857142854,-5.952380952380952,-3.253968253968254,-5.476190476190476,-67.53968253968253,211.03174603174602,-2.3015873015873014,224.84126984126982,-61.507936507936506,-5.158730158730158,-125.0,9.444444444444445,52.14285714285714,78.33333333333333,133.88888888888889,-1.984126984126984,-0.5555555555555556,-166.26984126984127
-175.3174603174603,-9.444444444444445,-7.222222222222221,32.14285714285714,-8.174603174603174,70.71428571428571,1.8253968253968254,-11.666666666666666,-5.158730158730158,-7.222222222222221,-96.26984126984127,212.61904761904762,-4.2063492063492065,214.68253968253967,-80.39682539682539,-6.904761904761904,-80.07936507936508,-2.46031746031746,-15.793650793650793,65.95238095238095,132.93650793650792,-2.142857142857143,-0.7142857142857142,-166.26984126984127
-175.3174603174603,-9.444444444444445,-7.222222222222221,32.14285714285714,-8.174603174603174,70.71428571428571,1.8253968253968254,-11.666666666666666,-5.158730158730158,-7.222222222222221,-96.26984126984127,212.61904761904762,-4.2063492063492065,214.68253968253967,-80.39682539682539,-6.904761904761904,-80.07936507936508,-2.46031746031746,-15.793650793650793,65.95238095238095,132.93650793650792,-2.142857142857143,-0.7142857142857142,-166.26984126984127
-127.38095238095238,-3.571428571428571,-3.253968253968254,-9.126984126984127,-4.841269841269841,36.74603174603175,-39.44444444444444,-9.126984126984127,-0.7142857142857142,-3.095238095238095,-45.63492063492063,82.77777777777777,0.23809523809523808,6.587301587301587,-34.84126984126984,-2.3015873015873014,-23.253968253968253,-37.857142857142854,-76.9047619047619,-8.015873015873016,11.349206349206348,0.3968253968253968,-0.23809523809523808,-166.26984126984127
-127.38095238095238,-3.571428571428571,-3.253968253968254,-9.126984126984127,-4.841269841269841,36.74603174603175,-39.44444444444444,-9.126984126984127,-0.7142857142857142,-3.095238095238095,-45.63492063492063,82.77777777777777,0.23809523809523808,6.587301587301587,-34.84126984126984,-2.3015873015873014,-23.253968253968253,-37.857142857142854,-76.9047619047619,-8.015873015873016,11.349206349206348,0.3968253968253968,-0.23809523809523808,-166.26984126984127
-54.047619047619044,2.7777777777777777,1.6666666666666665,-43.888888888888886,-0.23809523809523808,47.53968253968254,-42.61904761904761,-1.1904761904761905,2.46031746031746,0.873015873015873,28.333333333333332,-88.33333333333333,3.888888888888889,-250.07936507936506,36.58730158730159,0.873015873015873,23.095238095238095,-52.3015873015873,-49.44444444444444,-93.25396825396825,-114.2063492063492,2.142857142857143,-1.349206349206349,-166.26984126984127
-54.047619047619044,2.7777777777777777,1.6666666666666665,-43.888888888888886,-0.23809523809523808,47.53968253968254,-42.61904761904761,-1.1904761904761905,2.46031746031746,0.873015873015873,28.333333333333332,-88.33333333333333,3.888888888888889,-250.07936507936506,36.58730158730159,0.873015873015873,23.095238095238095,-52.3015873015873,-49.44444444444444,-93.25396825396825,-114.2063492063492,2.142857142857143,-1.349206349206349,-166.26984126984127
-120.39682539682539,-9.603174603174603,-7.063492063492063,25.158730158730158,-7.698412698412698,8.65079365079365,35.79365079365079,-17.063492063492063,-5.0,-6.746031746031746,-65.95238095238095,238.015873015873,-4.0476190476190474,274.36507936507934,-39.285714285714285,-6.428571428571428,4.2063492063492065,7.698412698412698,68.80952380952381,113.4126984126984,153.4126984126984,-3.571428571428571,0.07936507936507936,-321.8253968253968
-120.39682539682539,-9.603174603174603,-7.063492063492063,25.158730158730158,-7.698412698412698,8.65079365079365,35.79365079365079,-17.063492063492063,-5.0,-6.746031746031746,-65.95238095238095,238.015873015873,-4.0476190476190474,274.36507936507934,-39.285714285714285,-6.428571428571428,4.2063492063492065,7.698412698412698,68.80952380952381,113.4126984126984,153.4126984126984,-3.571428571428571,0.07936507936507936,-321.8253968253968
-227.69841269841268,-10.079365079365079,-8.333333333333332,-2.9365079365079363,-8.174603174603174,-36.42857142857142,-57.22222222222222,-20.555555555555554,-5.7936507936507935,-7.5396825396825395,-121.66666666666666,151.03174603174602,-4.682539682539682,300.87301587301585,-86.74603174603175,-7.063492063492063,-154.2063492063492,12.142857142857142,43.57142857142857,58.96825396825397,121.98412698412697,-2.142857142857143,1.8253968253968254,-321.8253968253968
-227.69841269841268,-10.079365079365079,-8.333333333333332,-2.9365079365079363,-8.174603174603174,-36.42857142857142,-57.22222222222222,-20.555555555555554,-5.7936507936507935,-7.5396825396825395,-121.66666666666666,151.03174603174602,-4.682539682539682,300.87301587301585,-86.74603174603175,-7.063492063492063,-154.2063492063492,12.142857142857142,43.57142857142857,58.96825396825397,121.98412698412697,-2.142857142857143,1.8253968253968254,-321.8253968253968
-62.77777777777777,-9.444444444444445,-7.698412698412698,34.2063492063492,-7.5396825396825395,5.158730158730158,72.93650793650794,-5.317460317460317,-5.476190476190476,-7.063492063492063,6.746031746031746,208.33333333333331,-4.841269841269841,225.0,23.57142857142857,-6.746031746031746,10.555555555555555,8.333333333333332,162.77777777777777,132.61904761904762,115.63492063492063,-2.9365079365079363,-0.7142857142857142,-321.8253968253968
-62.77777777777777,-9.444444444444445,-7.698412698412698,34.2063492063492,-7.5396825396825395,5.158730158730158,72.93650793650794,-5.317460317460317,-5.476190476190476,-7.063492063492063,6.746031746031746,208.33333333333331,-4.841269841269841,225.0,23.57142857142857,-6.746031746031746,10.555555555555555,8.333333333333332,162.77777777777777,132.61904761904762,115.63492063492063,-2.9365079365079363,-0.7142857142857142,-321.8253968253968
-55.15873015873016,-2.9365079365079363,-3.4126984126984126,8.333333333333332,-2.9365079365079363,4.365079365079365,17.38095238095238,1.6666666666666665,-1.349206349206349,-2.46031746031746,41.34920634920635,-10.555555555555555,-0.5555555555555556,-35.95238095238095,52.77777777777777,-2.7777777777777777,-59.12698412698413,-6.26984126984127,144.68253968253967,28.49206349206349,-22.142857142857142,-0.7142857142857142,-0.873015873015873,-321.8253968253968
-55.15873015873016,-2.9365079365079363,-3.4126984126984126,8.333333333333332,-2.9365079365079363,4.365079365079365,17.38095238095238,1.6666666666666665,-1.349206349206349,-2.46031746031746,41.34920634920635,-10.555555555555555,-0.5555555555555556,-35.95238095238095,52.77777777777777,-2.7777777777777777,-59.12698412698413,-6.26984126984127,144.68253968253967,28.49206349206349,-22.142857142857142,-0.7142857142857142,-0.873015873015873,-321.8253968253968
-42.14285714285714,1.984126984126984,1.507936507936508,21.03174603174603,2.142857142857143,-13.253968253968253,25.317460317460316,1.984126984126984,3.253968253968254,2.3015873015873014,38.01587301587301,-24.523809523809522,4.365079365079365,-29.126984126984127,51.666666666666664,2.142857142857143,56.269841269841265,-2.46031746031746,113.57142857142857,27.38095238095238,-24.206349206349206,-0.7142857142857142,-1.507936507936508,-321.8253968253968
-42.14285714285714,1.984126984126984,1.507936507936508,21.03174603174603,2.142857142857143,-13.253968253968253,25.317460317460316,1.984126984126984,3.253968253968254,2.3015873015873014,38.01587301587301,-24.523809523809522,4.365079365079365,-29.126984126984127,51.666666666666664,2.142857142857143,56.269841269841265,-2.46031746031746,113.57142857142857,27.38095238095238,-24.206349206349206,-0.7142857142857142,-1.507936507936508,-321.8253968253968
-54.68253968253968,12.3015873015873,10.238095238095237,-28.333333333333332,10.238095238095237,-26.428571428571427,-37.53968253968254,-0.23809523809523808,11.507936507936508,10.396825396825395,60.873015873015866,-211.03174603174602,12.936507936507935,-284.68253968253964,72.77777777777777,10.714285714285714,11.349206349206348,-35.63492063492063,109.44444444444444,-71.03174603174602,-153.57142857142856,2.142857142857143,-1.6666666666666665,-166.26984126984127
-54.68253968253968,12.3015873015873,10.238095238095237,-28.333333333333332,10.238095238095237,-26.428571428571427,-37.53968253968254,-0.23809523809523808,11.507936507936508,10.396825396825395,60.873015873015866,-211.03174603174602,12.936507936507935,-284.68253968253964,72.77777777777777,10.714285714285714,11.349206349206348,-35.63492063492063,109.44444444444444,-71.03174603174602,-153.57142857142856,2.142857142857143,-1.6666666666666665,-166.26984126984127
-48.33333333333333,5.317460317460317,5.634920634920634,11.825396825396824,5.634920634920634,-41.03174603174603,-5.158730158730158,-7.698412698412698,7.063492063492063,5.7936507936507935,13.571428571428571,-24.84126984126984,8.333333333333332,-18.333333333333332,28.65079365079365,6.428571428571428,9.126984126984127,-19.126984126984127,123.4126984126984,26.9047619047619,-18.80952380952381,0.3968253968253968,-1.0317460317460316,-166.26984126984127
-48.33333333333333,5.317460317460317,5.634920634920634,11.825396825396824,5.634920634920634,-41.03174603174603,-5.158730158730158,-7.698412698412698,7.063492063492063,5.7936507936507935,13.571428571428571,-24.84126984126984,8.333333333333332,-18.333333333333332,28.65079365079365,6.428571428571428,9.126984126984127,-19.126984126984127,123.4126984126984,26.9047619047619,-18.80952380952381,0.3968253968253968,-1.0317460317460316,-166.26984126984127
23.730158730158728,5.476190476190476,3.571428571428571,-18.96825396825397,3.73015873015873,-41.666666666666664,-53.41269841269841,1.8253968253968254,4.523809523809524,3.571428571428571,73.25396825396825,-198.8095238095238,5.7936507936507935,-283.57142857142856,71.82539682539682,3.571428571428571,-29.285714285714285,-33.25396825396825,106.42857142857142,-80.55555555555556,-147.85714285714286,1.507936507936508,-1.1904761904761905,-166.26984126984127
23.730158730158728,5.476190476190476,3.571428571428571,-18.96825396825397,3.73015873015873,-41.666666666666664,-53.41269841269841,1.8253968253968254,4.523809523809524,3.571428571428571,73.25396825396825,-198.8095238095238,5.7936507936507935,-283.57142857142856,71.82539682539682,3.571428571428571,-29.285714285714285,-33.25396825396825,106.42857142857142,-80.55555555555556,-147.85714285714286,1.507936507936508,-1.1904761904761905,-166.26984126984127
-0.5555555555555556,-7.222222222222221,-5.317460317460317,52.93650793650794,-5.317460317460317,-46.11111111111111,48.01587301587301,-14.047619047619047,-3.253968253968254,-4.682539682539682,-24.68253968253968,156.58730158730157,-2.619047619047619,222.61904761904762,-3.253968253968254,-4.365079365079365,-35.95238095238095,4.841269841269841,157.85714285714286,107.85714285714285,113.09523809523809,-2.619047619047619,-0.3968253968253968,-166.26984126984127
-0.5555555555555556,-7.222222222222221,-5.317460317460317,52.93650793650794,-5.317460317460317,-46.11111111111111,48.01587301587301,-14.047619047619047,-3.253968253968254,-4.682539682539682,-24.68253968253968,156.58730158730157,-2.619047619047619,222.61904761904762,-3.253968253968254,-4.365079365079365,-35.95238095238095,4.841269841269841,157.85714285714286,107.85714285714285,113.09523809523809,-2.619047619047619,-0.3968253968253968,-166.26984126984127
54.36507936507936,1.0317460317460316,-0.873015873015873,-27.38095238095238,-0.873015873015873,-16.26984126984127,-42.460317460317455,-1.8253968253968254,0.23809523809523808,-0.7142857142857142,62.77777777777777,-188.8095238095238,1.507936507936508,-281.3492063492063,68.65079365079364,-0.7142857142857142,-102.61904761904762,-34.047619047619044,157.2222222222222,-83.88888888888889,-140.7142857142857,1.8253968253968254,-0.5555555555555556,-166.26984126984127
54.36507936507936,1.0317460317460316,-0.873015873015873,-27.38095238095238,-0.873015873015873,-16.26984126984127,-42.460317460317455,-1.8253968253968254,0.23809523809523808,-0.7142857142857142,62.77777777777777,-188.8095238095238,1.507936507936508,-281.3492063492063,68.65079365079364,-0.7142857142857142,-102.61904761904762,-34.047619047619044,157.2222222222222,-83.88888888888889,-140.7142857142857,1.8253968253968254,-0.5555555555555556,-166.26984126984127
36.11111111111111,-0.23809523809523808,0.07936507936507936,5.476190476190476,-0.07936507936507936,-24.365079365079364,-19.126984126984127,-12.3015873015873,1.1904761904761905,0.3968253968253968,7.063492063492063,-13.73015873015873,2.619047619047619,-16.428571428571427,15.158730158730158,0.7142857142857142,-90.39682539682539,-16.746031746031743,186.9047619047619,8.015873015873016,-10.238095238095237,0.5555555555555556,0.23809523809523808,-321.8253968253968
36.11111111111111,-0.23809523809523808,0.07936507936507936,5.476190476190476,-0.07936507936507936,-24.365079365079364,-19.126984126984127,-12.3015873015873,1.1904761904761905,0.3968253968253968,7.063492063492063,-13.73015873015873,2.619047619047619,-16.428571428571427,15.158730158730158,0.7142857142857142,-90.39682539682539,-16.746031746031743,186.9047619047619,8.015873015873016,-10.238095238095237,0.5555555555555556,0.23809523809523808,-321.8253968253968
75.79365079365078,6.111111111111111,3.888888888888889,-21.349206349206348,4.0476190476190474,-19.76190476190476,-38.96825396825397,2.9365079365079363,5.158730158730158,4.2063492063492065,81.66666666666666,-177.2222222222222,6.428571428571428,-272.1428571428571,77.53968253968253,4.2063492063492065,-39.76190476190476,-26.587301587301585,212.46031746031744,-76.42857142857143,-135.63492063492063,1.6666666666666665,-0.3968253968253968,-321.8253968253968
75.79365079365078,6.111111111111111,3.888888888888889,-21.349206349206348,4.0476190476190474,-19.76190476190476,-38.96825396825397,2.9365079365079363,5.158730158730158,4.2063492063492065,81.66666666666666,-177.2222222222222,6.428571428571428,-272.1428571428571,77.53968253968253,4.2063492063492065,-39.76190476190476,-26.587301587301585,212.46031746031744,-76.42857142857143,-135.63492063492063,1.6666666666666665,-0.3968253968253968,-321.8253968253968
48.80952380952381,1.1904761904761905,1.349206349206349,9.444444444444445,1.349206349206349,-35.0,-8.492063492063492,-8.174603174603174,2.7777777777777777,1.6666666666666665,20.71428571428571,-5.476190476190476,4.0476190476190474,-1.0317460317460316,28.49206349206349,2.142857142857143,-24.206349206349206,-10.396825396825395,275.4761904761905,12.619047619047619,-11.825396825396824,-0.873015873015873,-0.07936507936507936,-321.8253968253968
48.80952380952381,1.1904761904761905,1.349206349206349,9.444444444444445,1.349206349206349,-35.0,-8.492063492063492,-8.174603174603174,2.7777777777777777,1.6666666666666665,20.71428571428571,-5.476190476190476,4.0476190476190474,-1.0317460317460316,28.49206349206349,2.142857142857143,-24.206349206349206,-10.396825396825395,275.4761904761905,12.619047619047619,-11.825396825396824,-0.873015873015873,-0.07936507936507936,-321.8253968253968
